 EXG Channel 0, EXG Channel 1, EXG Channel 2, EXG Channel 3
7774.517866911634,9649.561005778432,18591.286968146203,-507.25048866873846
7366.196199202085,9650.902110445752,17768.586309979717,-956.5205522204104
6989.47989815234,9666.660090286745,16651.557880825745,-1436.926595798325
7249.587148378748,9679.780564282008,16877.77988645791,-1161.0166622420147
7739.000944972151,9664.693136774677,18099.1239069848,-595.9869141563075
7779.077622780517,9650.410372067736,18591.264616401742,-520.2815556861825
7378.355548185772,9652.556139535443,17793.441449814018,-958.8451336437624
6993.279694709742,9669.834037999395,16674.87075029263,-1449.7117936267607
7240.579395363259,9684.87676201782,16872.86250267774,-1186.8999823212605
7729.926136723297,9666.30246237546,18090.183209202674,-615.0082486877739
7781.089279781495,9650.365668578825,18604.29568341919,-527.7470383342551
7381.8424203208,9649.650412756257,17812.7533570234,-962.823744156807
6991.782127831237,9664.939005963684,16677.932939283008,-1450.449401193786
7230.386999891639,9677.25481715856,16854.131740824192,-1192.778491113006
7722.840633730964,9656.825322726409,18074.760505528517,-615.6117457880671
7779.390547202891,9642.073171385906,18612.20820095637,-518.0463812406518
7385.8433825782995,9644.53186327599,17841.654162604114,-940.2708340014022
6988.071738251655,9657.361764593335,16698.943579070998,-1439.8993778108809
7215.344275873217,9670.951625222162,16848.09676982126,-1198.4781859491095
7715.822185971998,9657.093543659872,18067.89851998073,-618.0927894226062
7786.252532750671,9640.888528929774,18627.295628463704,-507.4069508799256
7398.717987384557,9645.29182258747,17869.12445653969,-926.1892349945588
6992.519735398261,9656.177122137204,16712.958122844473,-1437.1501132428782
7205.464804823972,9664.089639674385,16833.90341209214,-1216.4936919800869
7706.389749811859,9650.09744764536,18053.638107018247,-637.1588274429831
7783.391509460392,9637.535767261475,18635.40931170098,-522.4496748983473
7403.747129887,9644.688325487175,17897.01943361991,-936.4486856995449
6996.274828466753,9661.854465228853,16735.30986729978,-1448.9071308263697
7207.610572291681,9680.272302660023,16835.75860688193,-1230.7988084314834
7712.536479537068,9666.324814119913,18045.144444125228,-653.2073799618936
7796.690797411299,9649.650412756257,18639.32086698066,-540.6439948849672
7418.454577738593,9653.919595947218,17914.386739061683,-950.4855812174776
7002.488613425328,9670.146962421772,16744.652896482097,-1470.2753985256434
7203.386092589628,9687.49191611909,16817.586638639765,-1268.39444260531
7705.04864514454,9671.510418833544,18020.84809790231,-686.064444311195
7789.940570585796,9648.53282553349,18631.721273865853,-560.6711579169223
7415.727664915045,9651.013869168028,17924.69089325558,-961.0579563448376
7001.728654113848,9671.219846155624,16754.39825706461,-1479.1713928188556
7187.337540070718,9682.306311405458,16800.6663680871,-1287.3710736478656
7688.597761225434,9665.877779230808,17995.791792367912,-699.5201944732898
7795.4390997218015,9653.517264547025,18630.581334898638,-552.8256956131096
7438.258223325995,9662.614424540332,17952.161187191152,-939.0638398008156
7010.132910029043,9671.331604877902,16773.12901891816,-1474.119898571956
7183.247170835397,9686.44138412969,16794.340824406245,-1303.486681400142
7687.301360047026,9673.946758979171,17984.7947340959,-718.6979912159433
7799.216544534749,9660.893340217272,18641.04195130372,-567.8907713759866
7436.984173892042,9663.016755940527,17975.40700142467,-955.5817789532877
7004.969657059867,9675.980767724606,16789.311681903804,-1490.3919685354197
7169.27733055083,9691.96226501015,16785.80245802432,-1327.3136409894994
7678.897104131831,9682.82040152793,17968.857940299265,-741.2732531158034
7800.825870135531,9669.76698276603,18641.82426235965,-582.3076465496596
7447.109514130297,9674.19262816818,17993.60132141129,-959.2251132995026
7014.2232792643645,9689.883552775807,16808.578885624276,-1494.2588203261878
7174.03825211981,9709.240163474104,16786.47301035798,-1342.781048152572
7681.780479166566,9697.483145890612,17960.096056472787,-758.4393928574792
7809.341884773003,9677.925369492215,18646.004038572795,-587.9849896413076
7458.844179969333,9675.600788068868,18010.9015716197,-960.1191830777148
7020.146491545021,9690.44234638719,16815.66438861661,-1498.9526866618023
7166.237493304908,9706.6920646062,16763.048382168818,-1357.577902981985
7675.8125633969985,9692.185782454704,17930.435291580594,-765.8378202721859
7808.82779465053,9670.124610677316,18639.20910825838,-584.9675041398411
7459.134752647252,9671.018680455529,18024.647894459715,-946.529322448888
7018.805386877702,9690.06236673145,16826.259115488425,-1483.127651587445
7153.65346117657,9704.233372716117,16743.043570881317,-1351.8111529125158
7664.569635935979,9691.984616754606,17904.06023312333,-760.2275324139038
7811.979390618729,9673.566779323432,18634.381131456037,-572.4952307337797
7473.551627820925,9675.801953768963,18039.26593533349,-930.8383978412626
7029.377762005063,9693.459831888656,16841.23478427348,-1476.8244596510483
7149.674850663526,9709.374273940835,16736.159233589082,-1365.870400174904
7660.792191123032,9699.561858124956,17889.30808178283,-777.2148581999372
7813.476957497234,9680.853448015863,18635.96810531236,-581.100652349073
7480.055985457419,9687.380157396812,18059.941298954644,-932.4253716975894
7028.394285249029,9705.753291339077,16851.337772767278,-1489.4978987572074
7141.851740104168,9723.187652014214,16714.187468789514,-1392.3795690988982
7652.6561561413,9712.324704208935,17862.016601802898,-801.7794253563196
7816.919126143352,9696.67848309022,18630.715445365364,-594.0423123886958
7487.141488449752,9698.220753457636,18072.86060724981,-939.6226334121984
7029.109541071599,9712.123538508838,16858.982069370995,-1501.456082040797
7128.083065519699,9727.546242183,16697.155439514572,-1415.0218862321242
7642.329650202948,9720.63955314631,17843.643467860635,-816.218652274448
7816.002704620684,9706.669712861743,18636.906878579484,-596.8809839345198
7493.467032130603,9711.542393153,18097.80515406193,-934.6828978875756
7035.5244917302725,9725.35577122638,16882.741973726985,-1496.538698260629
7129.379466698107,9745.092361580417,16700.73171862742,-1415.446569376775
7642.352001947404,9734.698800408698,17832.221726443975,-816.9562598414732
7823.065855868561,9715.699817621688,18636.504547179287,-589.5719634976344
7512.264849217517,9720.527794424032,18120.380415961798,-912.2640981989024
7054.67993672847,9733.335343996923,16912.805070019374,-1469.5154392141628
7137.493149935383,9751.26144305008,16710.87941061013,-1405.7906157720824
7645.950632804708,9739.817349888965,17827.058473474797,-815.8610243631631
7834.509949029679,9717.979695556129,18647.99334382932,-576.4291377579138
7528.760436625534,9723.388817714313,18153.21512856664,-892.1922316780367
7062.815971710203,9737.895099865807,16938.084892998326,-1459.412450720364
7132.799283599768,9758.88338790934,16701.58108491672,-1416.3406391549872
7645.034211282041,9755.329460540946,17807.165420909576,-828.7803326583306
7842.377763077947,9739.683239422233,18644.305305994192,-580.4748035043244
7541.545634453969,9744.108884824382,18168.101390373875,-888.0348072093497
7078.30573061773,9758.726925698153,16957.910890330182,-1454.450363451286
7142.008202315355,9781.033966664549,16700.038814549305,-1421.8168165465377
7647.671717127767,9773.769649716574,17785.595987510205,-837.1175333401601
7854.939443461829,9757.83285591994,18643.16536702697,-578.3513877810702
7558.7341259401,9757.989318131127,18186.161599893763,-880.8822489836514
7087.157021422032,9766.79590544652,16974.250015527014,-1447.7895436036044
7129.535928909294,9782.17390563177,16685.44312541999,-1428.7458573276826
7635.244147210616,9772.875579938362,17761.724324431936,-838.860969407674
7853.151303905404,9756.782323930542,18637.48802393532,-566.9296463644083
7565.953739399164,9761.252672821603,18197.493934332604,-862.6879289970313
7092.990826724867,9769.120486869871,16978.69801267362,-1433.4620754077523
7130.6758678765145,9791.405176091812,16671.562692113246,-1415.8489007769706
7636.339382688926,9785.951350444717,17746.011048079854,-821.5607191992664
7858.962757463784,9765.320690312468,18631.564811654665,-544.8908263314755
7572.882780180309,9761.096210610416,18205.96524548117,-838.1904170740148
7095.203649425942,9768.852265936406,16989.98564362355,-1410.9538687412582
7113.688542090481,9783.894989954828,16649.456816846945,-1415.7818455436047
7617.586269090923,9774.864885194884,17708.37071041712,-829.0038501028837
7848.658603269888,9756.894082652818,18610.464764888857,-548.5788641666012
7570.379384801315,9759.397478031811,18207.08283270393,-834.703544938987
7099.048149472255,9780.966911431184,16997.1605535937,-1409.3668948849315
7117.443635158973,9816.12620545938,16638.86208997513,-1428.0306015051128
7626.169338961761,9818.60724909392,17691.78571603128,-843.3089665542801
7872.351452392513,9805.218554165192,18617.170288225447,-551.4398874568806
7601.202440405184,9807.096100699437,18232.74263533862,-832.088390837716
7120.304658449252,9819.70248457223,17011.488021789555,-1416.318287410532
7124.350324195662,9848.603290152943,16621.62889500009,-1453.511590184163
7629.410341907781,9846.055191285035,17658.8168929597,-874.4225948360676
7874.474868115768,9820.484795628166,18596.49492460429,-579.4466232593803
7609.0702544534515,9823.725798574184,18233.79316732802,-851.154428858093
7136.3755627126175,9842.076580771993,17026.597801041342,-1422.8226450470263
7134.073333033721,9868.943377607273,16623.931124678984,-1460.8429623655036
7631.421998908759,9859.823865869506,17643.550651496727,-882.9386094735396
7884.041414742639,9835.23694696867,18594.93030249242,-573.9033906344641
7627.152815717794,9837.047438269548,18256.971926328173,-823.3041552667803
7148.959594840956,9851.71018263223,17047.966068740614,-1391.351388853954
7127.211347485942,9870.61975844142,16611.10122336164,-1449.801200604582
7622.347190659904,9861.209674025737,17612.52643019276,-876.7248245149642
7893.272685202681,9838.209728981225,18581.40749709696,-551.3057769901487
7643.067257769973,9837.13684524737,18265.33147875446,-796.5491171537778
7160.761315913358,9850.793761109562,17063.455827648144,-1367.2785600755883
7130.787626598791,9869.971557852215,16606.899095404042,-1438.6029766324732
7622.2801354265375,9864.584787438487,17594.600331139605,-873.7073390134977
7892.266856702192,9845.250528484648,18576.132485405506,-552.2892537461822
7649.079877028451,9855.241758256168,18282.81054291851,-794.7386258528979
7170.439621262506,9877.95113062276,17088.42272620472,-1364.283426318577
7128.708914364447,9902.560401268054,16608.86604891611,-1451.566988416551
7612.802995777488,9899.185287855302,17573.56733960716,-892.0357694668496
7892.915057291396,9878.778145167607,18562.85554919905,-556.4690299593246
7657.7076503882,9881.840334157983,18291.304205811528,-787.8766403051186
7177.815696932757,9898.96177041075,17102.660787422752,-1355.812115170016
7124.327972451208,9923.81691024505,16602.071118601696,-1451.6563953943726
7607.416225363759,9916.284372363612,17552.400237607984,-890.0464642103273
7900.268781217192,9891.67510171832,18558.385200307992,-535.5254454047019
7671.878656372864,9886.444793515777,18304.78230771808,-752.7620497658313
7188.768051715858,9891.071604618026,17114.417805006244,-1321.2786699865665
7124.953821295956,9904.14737512438,16584.27913001527,-1425.6166131039397
7611.573649832446,9898.268866332635,17524.974647161325,-855.6471294936097
7910.796452855641,9874.24074104318,18548.326915303103,-490.5537355606241
7690.0729763594845,9874.576017210007,18313.81241247802,-707.611525966111
7211.589182804726,9899.900543677872,17132.567421503954,-1281.5596200894856
7139.46010344745,9937.00443947368,16580.501685202325,-1410.70799955225
7616.312219656971,9944.134645954926,17502.153516072456,-865.638359265132
7921.279421005181,9933.91989873885,18537.441615753367,-508.9939247362525
7707.775557968088,9939.574890086042,18326.41879635081,-724.5988517521444
7227.347162645718,9959.132666484436,17150.11354090137,-1305.319524445477
7142.455237204461,9987.340567987034,16572.432705453957,-1455.8138198630595
7621.27430692605,9990.40275697741,17483.802733874647,-914.633383111165
7934.154025811437,9978.154001015902,18536.391083763967,-554.1220967915174
7720.359590096426,9980.59034116153,18342.24383142517,-776.253733188359
7232.555119103804,9995.051919824116,17164.30689863049,-1360.193057083256
7133.089856277687,10020.689370714352,16565.95069956192,-1520.3880095944417
7609.405530620281,10028.17720510688,17463.149721997943,-980.0345873873936
7930.957726354329,10010.541678731644,18523.96351384682,-607.2968968506929
7729.099122178451,10016.17431833438,18348.36820940593,-802.8076056012637
7235.460845882994,10028.959516162817,17159.702439272696,-1377.3591968249318
7125.64672537407,10051.400667595944,16528.422120621457,-1542.3597743940086
7601.7388822721105,10054.105228675036,17410.53371555015,-989.0423404028822
7927.627316430488,10030.524138274686,18484.28916743865,-594.8916786779974
7730.1049506789395,10026.366713806,18331.96202897573,-775.8961052770741
7246.793180321834,10037.453179055832,17165.826817253448,-1337.3272225054768
7120.237603215886,10056.742734520762,16512.418271591458,-1511.469663556774
7582.78460297401,10057.189769409868,17368.288918529623,-964.6118837132316
7920.89944134944,10039.308373845624,18456.48359733625,-550.6799281454001
7735.759942026132,10038.168434878402,18330.598572563955,-717.1110173596165
7248.871892556178,10044.538682048164,17169.894834744315,-1277.2010299207009
7119.343533437674,10067.18099918139,16499.11898364055,-1459.188933275811
7587.523172798536,10076.121696963512,17345.311325229566,-919.6178221246984
7932.298831021647,10061.168379922912,18446.805291987097,-507.76457879121057
7747.092276464972,10058.016783954714,18341.595630835967,-672.3404732156364
7264.071078785787,10070.869037016517,17196.225189712666,-1228.6977444526844
7126.026705029811,10095.165383239437,16507.12090815555,-1422.7779415581158
7582.8963616962865,10097.266447218231,17324.01011276366,-890.1135194436931
7934.578708956088,10079.362699909532,18430.19794585681,-472.4488225518254
7760.637433604888,10075.4287928854,18348.949354761764,-627.9946122163072
7278.890285359655,10084.861229045538,17215.3135794775,-1178.5851333838862
7128.775969597813,10109.291685735188,16504.326940098636,-1389.60795278644
7579.565951772446,10115.706636393865,17299.870228751926,-869.6840250115425
7935.249261289748,10094.47247916132,18417.770375939654,-442.9221681263648
7773.310872711047,10093.734871594295,18367.76952359313,-585.6157047290451
7294.022416355899,10106.788290356197,17250.674039205795,-1133.4793130730764
7134.7885888562905,10132.626906946529,16530.634943322533,-1354.9851006251697
7578.560123271957,10138.281898293722,17309.593237589987,-847.6452049786097
7938.982002613784,10119.10410155107,18433.058969147085,-416.0106678021751
7782.810364104554,10118.14297653949,18397.229122785226,-549.1600095224392
7308.215774085018,10133.878604636027,17279.37367908641,-1098.1635568336912
7136.710838879448,10157.146770614,16531.41725437847,-1336.45550447172
7576.123783126329,10162.019450905258,17296.584522316996,-833.7424199274087
7943.787627671675,10141.455846006376,18432.0531406466,-405.7735688416444
7786.945436828785,10138.95245062738,18408.82967815753,-548.4671054443247
7309.758044452435,10152.475256022844,17296.070432194523,-1101.5386702464427
7134.498016178372,10182.426593592954,16535.217050935873,-1350.7829726675718
7570.379384801315,10188.215695406878,17281.966481443225,-857.9493591725063
7940.636031703477,10168.076773652649,18423.335960309025,-425.5325109401359
7795.461451466257,10168.38969807502,18425.12409986545,-561.1628962949391
7319.950439924055,10184.192381404922,17325.530031386617,-1111.105216873314
7127.591327141682,10211.796785807228,16539.37447540456,-1382.4330428162866
7557.25891080605,10221.184518478456,17265.80617020204,-899.6577143261093
7939.361982269524,10204.59952409262,18421.346655052505,-457.8531334225098
7800.44589047979,10205.091262470634,18442.714922751777,-581.6594459604557
7326.387742327183,10219.441082410942,17343.05379903958,-1124.0468769129368
7131.6146411436375,10244.40798096752,16542.36960916157,-1387.8421649744707
7551.670974692223,10243.089228044655,17243.99086761366,-902.697551572031
7947.363906784524,10222.838547568148,18409.85785840248,-441.1116768254849
7819.288411055614,10217.652942854518,18459.83635900454,-549.1600095224392
7347.219568159529,10228.73940810435,17370.72525867525,-1086.8088706503954
7134.766237111836,10252.275795015788,16543.286030684238,-1373.6488072453508
7551.290995036483,10259.473056730398,17229.88691686236,-898.6295340811652
7950.157874841438,10240.630536154573,18405.566323467057,-432.6180139324682
7832.207719350782,10237.59069890865,18475.862559779,-531.6138901250232
7365.078611979319,10252.186388037968,17394.753383964704,-1069.4415652086218
7143.41636221604,10275.186333082478,16546.571737119168,-1371.5253915220967
7553.302652037461,10283.054147130746,17208.965684052193,-906.7879208073522
7953.443581276368,10263.228149798888,18386.165009279848,-437.8930256239207
7841.126065388449,10261.50706547583,18477.58364410205,-530.9880412802746
7374.712213839557,10276.572141238708,17415.741672008236,-1063.853629094795
7143.259900004852,10302.187240384488,16551.13149298805,-1376.0180921576134
7547.133570567796,10310.27857187731,17188.69265183123,-922.2553279704248
7957.064563878127,10291.927789679505,18374.832674841007,-448.6665664513787
7848.9715276922625,10285.043452387268,18483.439801149347,-536.8218465831097
7384.904609311177,10300.980246183904,17434.181861183868,-1064.9265128286495
7148.356097740662,10335.536043111808,16557.94877504692,-1384.0647201615238
7543.892567621776,10344.61085136066,17173.225244668156,-937.7897903668631
7957.131619111493,10321.387388871595,18356.839520554488,-454.38861303193727
7861.957891220795,10319.487490592895,18491.978167531277,-524.1931109658613
7401.601362419291,10333.85966227766,17461.763913841714,-1035.981003759027
7152.267653020341,10363.229854491932,16561.480350670856,-1359.254283816133
7543.937271110687,10373.779877874837,17153.86863396986,-916.8015023233298
7963.81479070363,10354.780895087826,18347.116511716427,-421.1068655379851
7873.513743104189,10347.494226395396,18503.265798481203,-479.6237325219789
7415.772368403956,10358.0442497783,17482.774553629704,-985.9130961791392
7155.329842010719,10378.92077909956,16563.112028016094,-1326.9783648226696
7533.230785516595,10384.709880913482,17132.612124992862,-900.7529498044194
7960.998470902261,10366.38145046013,18330.62092430841,-405.7288653527338
7886.611865354999,10364.302738225788,18513.10056604154,-456.0649938660853
7428.244641810017,10373.690470897016,17500.61124570504,-968.1658110816254
7155.441600732995,10395.68458744104,16566.42008619548,-1318.9093850743038
7527.844015102865,10402.14424158862,17117.211773063158,-893.153356689615
7955.611700488532,10378.652558166094,18319.690921269765,-390.1944029562954
7886.522458377178,10375.43390696453,18517.459156210323,-434.8755401224542
7439.196996593118,10389.806078649292,17517.866792424535,-942.9306915915836
7160.627205446626,10412.850727182717,16566.464789684393,-1308.3593616913988
7528.045180802964,10418.840994696737,17093.250703007066,-895.6567520686093
7965.982909915795,10401.451337510509,18305.363453073915,-379.465565617748
7900.201725983826,10393.24824729541,18529.596153449555,-413.7084381232784
7450.797551965422,10407.598067235716,17541.961972947356,-918.0084965239164
7161.744792669391,10431.268564613889,16576.970109578386,-1295.104777229402
7523.887756334277,10441.438608341052,17082.343051712876,-887.1854409200479
7962.026651147205,10416.695227229027,18292.77942094557,-372.69298704779
7905.163813252904,10404.781747434348,18542.068426855614,-401.43733041731485
7455.402011323215,10412.20252659351,17561.899729001492,-905.4244643955784
7153.9216821100335,10431.045047169337,16573.237368254348,-1295.9317917742485
7511.281372461483,10445.216053154,17056.035048488982,-901.0658742267937
7960.998470902261,10430.128625646666,18280.731830684166,-377.3421498944938
7916.384388969468,10423.19958486552,18552.99842989426,-397.9951617711976
7471.674081286679,10433.548442548328,17584.117362990066,-895.9026212576177
7168.3609090281625,10458.045954471345,16590.448211484934,-1284.5771055909522
7512.913049806721,10470.473524388495,17049.106007707836,-897.5790020917657
7961.870188936018,10448.859387500212,18266.13614155485,-374.5034783486698
7918.686618648365,10436.767093749892,18550.182110092894,-388.272152933139
7476.747927278034,10447.78650376636,17596.16495325148,-877.4847838264446
7164.538760726305,10471.300538933345,16586.447249227436,-1276.6645880537735
7502.139508979262,10480.822382071305,17022.2168591281,-902.4963858719332
7956.304604566647,10454.983765480967,18243.29265872153,-377.6103708279575
7921.793511127653,10442.511492074907,18553.24429908327,-383.466527875248
7486.448584371637,10452.033335212867,17624.238744287344,-865.571304031766
7166.1927898159975,10474.049803501344,16600.730013934375,-1277.6033613208965
7491.209505940617,10484.510419906428,17013.343216579346,-916.1756534785812
7950.560206241633,10468.685384832072,18238.41997843027,-381.3654638964491
7923.604002428532,10459.901149261135,18564.151950377454,-383.17595519732896
7490.896581518243,10469.914730777113,17642.20954682941,-869.3934523336235
7166.930397383023,10495.619236900717,16610.229505327883,-1287.8181085369715
7486.895619260743,10507.242144017477,16993.40546052521,-937.6556799001312
7954.538816754677,10492.199419999057,18217.051710731,-400.6997228502897
7939.652554947443,10486.0750420183,18571.975060936817,-385.6122953429575
7513.225974229094,10497.586190412783,17666.34943084114,-857.8823039391403
7174.842914920201,10518.663885434138,16612.44232802896,-1291.3496841609103
7484.012244226008,10530.979696629012,16973.60181493781,-952.7431074074636
7953.1083051095375,10513.2324115315,18195.90696047628,-408.075798520541
7942.535929982178,10500.55897242534,18562.073238143115,-384.0029697421753
7522.814872600422,10510.863126619235,17674.88779722307,-841.1631990865707
7182.464859779461,10532.343153040783,16617.873801931597,-1271.8813147403378
7483.609912825813,10543.273156079433,16955.318087973366,-940.6284619126872
7953.935319654384,10525.011780859444,18177.60088176738,-391.401397156882
7955.499941766256,10517.278077277908,18570.030459169204,-354.58807403899124
7538.505797208047,10530.107978595255,17694.847905021656,-812.8435388616966
7191.1373366281205,10551.431542805618,16622.67942698949,-1257.7550122445837
7482.224104669583,10558.874673709235,16938.800148820897,-934.727601376486
7953.980023143295,10536.344115298283,18162.111122859853,-382.52775460812506
7958.137447611982,10517.591001700284,18570.67865975841,-346.67555650181254
7538.371686741315,10518.663885434138,17703.095698725665,-809.7142946379537
7174.41823177555,10529.37037102823,16617.38206355358,-1265.7345850151282
7457.95011019112,10541.954403156567,16909.16173567316,-957.57108420981
7940.434866003378,10528.141025083189,18135.333733002397,-401.77260658414446
7961.937244169384,10522.84366164728,18578.322956362124,-344.5521407785584
7558.376498028815,10540.36742930024,17738.54556543178,-782.6686838470321
7196.457051808483,10563.94851970059,16643.44419758847,-1236.945538156693
7471.38350860876,10578.18658091862,16905.004311204473,-939.2873572453686
7962.540741269678,10567.927130213637,18136.384264991797,-377.498612105681
7989.943979971884,10558.539397542403,18592.426907113422,-322.9156521458211
7576.749631971077,10564.194388889598,17751.151949304574,-778.3995006560684
7202.827298978245,10582.969854232057,16637.878613219098,-1250.781267974528
7470.712956275101,10602.751148075004,16879.612729503242,-963.2260755570026
7958.651537734454,10591.441165380618,18105.829430321388,-406.108845008474
7992.648541050976,10581.069955953357,18589.945863478883,-342.22755935520644
7586.718509998144,10589.831839779836,17774.57657749374,-781.1040617351606
7207.789386247324,10609.0543400114,16653.033095959796,-1250.58010227443
7466.488476573048,10627.96391582059,16874.024793389417,-967.182334325592
7954.181188843392,10613.10000575781,18097.939264528664,-401.884365306421
8000.114023699049,10603.24288645302,18597.3889943825,-327.05072487005293
7597.290885125504,10608.450842911108,17789.70870848998,-769.1682301960267
7215.008999706388,10629.014447809988,16659.29158440728,-1254.5587127874749
7468.187209151651,10646.426456740674,16855.316383280326,-994.920849194628
7960.596139502066,10627.941564076134,18073.039421205453,-434.6073191889905
8009.948791259384,10611.758901090492,18593.768011780743,-350.9447396927762
7613.071216710951,10619.559659905392,17809.46765058847,-781.126413479616
7216.99830496291,10634.088293801344,16671.33917466869,-1276.9328089872372
7453.14448513323,10650.226253298077,16837.345580738256,-1031.0412682344042
7945.5757672281,10634.043590312433,18051.559394783904,-462.8599241804986
8004.562020845655,10622.018351795476,18589.476476845324,-366.2556846446615
7611.148966687795,10625.974610564066,17823.951580995512,-788.189564727493
7212.974990960955,10645.867663129293,16683.856151563665,-1279.1232799438574
7437.945298903621,10662.720878448592,16826.61674339971,-1034.751657813985
7935.450426989845,10652.372020765784,18038.43892078864,-456.4449735218256
8005.187869690403,10637.239889769542,18591.64459605749,-349.5142280476365
7624.470606383158,10640.615003182293,17844.58224112776,-755.3325003781915
7221.468653853972,10656.529445234471,16694.182657502017,-1251.5412272860085
7435.71012445809,10672.801515197936,16809.65176935813,-1016.2667651494462
7941.150121825948,10657.289404545952,18015.9530658666,-432.1933307878174
8019.291820441702,10636.658744413704,18588.3365378781,-310.3763235063939
7644.60952813739,10642.20197703862,17858.44032269005,-698.2908485282479
7236.399619150116,10658.027012112978,16700.97758781643,-1187.5705346549196
7442.817979194878,10671.125134363789,16789.714013303997,-958.2192847990136
7945.084028850082,10652.10379983232,17991.27673998794,-370.0554812020637
8030.490044413811,10632.836596111849,18585.74373552129,-246.91972099777712
7653.684336386244,10637.776331636467,17868.49860769494,-648.6923275819215
7243.440418653538,10654.62954695577,16706.87844835263,-1159.2508744300455
7446.416610052182,10669.627567485282,16778.85106549872,-954.8441713862624
7953.823560932107,10656.462390001108,17979.542074148903,-374.2576091596615
8044.124608531548,10638.156311292209,18596.025537970727,-252.440601878238
7675.90197037482,10646.15823580721,17898.941683643065,-655.6660718519773
7257.969052549488,10667.660613973214,16730.41483526407,-1181.781432840995
7447.0648106413855,10690.1241171508,16773.821922996274,-1002.0063521869604
7951.498979508756,10676.8695326888,17969.75201007748,-430.9192813538649
8050.740724890319,10660.06102085841,18612.007035256276,-302.5532129470364
7680.998168110629,10669.78402969647,17928.31187585734,-705.7563311763205
7252.515226902393,10690.817021228911,16745.390504049123,-1240.00772714707
7423.70723768559,10709.74894878256,16754.957050675996,-1072.1237745432586
7930.354229254035,10697.276675376495,17942.974620220022,-495.6275815519789
8044.169312020459,10682.412765313717,18606.463802631355,-350.0506699145639
7684.865019901397,10691.26405611802,17941.767626019435,-730.3879535660689
7252.649337369125,10712.229992417097,16753.61594600868,-1254.134029642824
7419.929792872643,10732.212451960142,16748.430341295047,-1080.7962513919176
7929.348400753546,10716.052140718955,17933.341018359784,-488.7432442597442
8050.159579534481,10694.54976255295,18612.431718400923,-323.02741086809766
7698.365473552403,10700.517678322516,17965.50517863097,-691.093586813639
7261.478276428971,10714.509870351538,16769.66449852759,-1221.6122414603522
7417.627563193747,10731.877175793312,16733.946410888006,-1060.679681382141
7928.163758297415,10714.666332562723,17911.0786808823,-461.3847090464484
8054.696983658909,10690.191172384164,18606.17322995344,-284.91768657179915
7710.52482253609,10696.896695720756,17981.598434638792,-639.9527954998965
7273.771735879391,10711.648847061258,16788.32820514777,-1165.0176244995148
7421.427359751148,10733.88883279429,16734.25933531038,-1014.791550015396
7933.930508366884,10726.60216410186,17903.434384278582,-418.26819399216106
8074.07594610166,10712.587620328382,18617.393805670003,-226.9819649436432
7732.295421635559,10717.706169808647,18006.56533319537,-577.3679110250367
7290.021454098399,10732.100693237864,16807.90833329062,-1110.9264029176716
7424.131920830241,10748.439818434694,16718.791928147308,-977.1065088637482
7931.829444388086,10730.491367637083,17872.946604841545,-387.98158025522
8078.747460692819,10707.849050503855,18606.553209609177,-197.3882552848167
7741.280822906593,10708.0278644595,18019.439938001626,-541.716878618822
7295.989369867965,10724.992838501075,16822.61578114221,-1077.8234693793618
7420.309772528383,10743.388324187796,16713.583971689222,-960.4991627334553
7930.130711809482,10732.391265915783,17860.49668317994,-369.16141142385146
8083.262513072791,10711.000646472055,18603.714538063352,-174.58947594040347
7750.601500344455,10709.905410993744,18033.02979863045,-517.3981806514479
7304.527736249893,10725.328114667907,16833.434025458577,-1061.7972686049068
7418.320467271861,10745.779960844511,16698.831820348718,-963.8072209128404
7924.766293140208,10733.620611860826,17835.485081134448,-380.42669062932623
8085.721204962874,10712.766434284023,18601.63582582901,-180.02094984304307
7759.318680682026,10718.935515753688,18047.692542993136,-523.3213929321042
7298.135137335675,10730.871347292825,16836.89854584915,-1083.8360886378396
7406.5634496883695,10755.100638282376,16680.39163117309,-997.8489277182732
7921.391179727457,10748.059838778954,17815.748490780414,-412.2108712447729
8093.611370755598,10731.31838218193,18599.355947894568,-205.56899375545905
7774.182590744805,10737.420408418227,18063.5622815564,-541.3816024519924
7317.134120122686,10753.781885359513,16856.94806062556,-1098.6999987006186
7412.08433056883,10774.121972813842,16679.184636972506,-1021.0053349739712
7921.458234960823,10763.326080241928,17806.159592409087,-435.5013889672028
8100.160431881003,10746.22699573362,18607.98372125432,-215.04613340450925
7781.066928037039,10748.46217017915,18086.38341264527,-538.9229105619086
7316.910602678133,10758.341641228397,16874.06949687833,-1093.6485044537192
7395.27581873844,10772.8926268688,16665.550072854767,-1033.0082217464712
7908.3154092211025,10765.896530854288,17782.019708397354,-446.94548212832
8096.986484168349,10745.690553866692,18600.58529383961,-210.30756357998416
7785.738442628199,10748.59628064588,18097.06754649491,-525.9365470333752
7321.492710291471,10764.42131572024,16879.478619036512,-1078.561076946387
7388.994978546498,10780.693385683702,16641.76781675432,-1023.0840472083148
7899.777042839175,10773.384365246817,17749.363809748153,-426.8959673519096
8097.36646382409,10758.341641228397,18587.554226822165,-175.6623596742582
7786.878381595419,10757.64873715028,18102.34255818636,-488.0950436705404
7317.8270242008,10768.601091933382,16886.3853080732,-1053.30360571189
7377.215609218551,10789.321159043451,16630.077854404193,-1018.7478087839852
7890.702234590321,10782.548580473493,17732.354132217664,-428.7958656306107
8096.427690556967,10760.532112185016,18583.77678200922,-178.03164458652074
7800.512945713156,10765.293033753996,18121.453299695648,-484.1611366464063
7329.338172595284,10777.832362393425,16905.96543621605,-1054.600006890298
7379.942522042099,10795.601999235392,16625.853374702143,-1034.9081200251724
7887.237714199748,10784.023795607543,17712.326969185706,-448.6218629624681
8103.356731338112,10762.65552790827,18581.96629070834,-183.10549057787543
7808.358408016969,10761.202664518674,18142.26277378354,-477.12033714298457
7332.69093426358,10772.780868146525,16929.367712660758,-1042.2841956954237
7365.682109079613,10789.61173172137,16616.71151121992,-1035.9139485256612
7872.306748903603,10781.162772317264,17687.337718884675,-450.7676304301775
8090.102146876115,10754.69830688218,18570.4327905694,-179.30569402047325
7810.325361529036,10760.532112185016,18154.44447451168,-463.23990383623885
7338.033001188398,10772.13266755732,16946.556204146887,-1028.2473001774908
7360.921187510632,10789.47762125464,16618.3208368207,-1028.046134477393
7858.135742918938,10779.732260672125,17672.496160566352,-450.7452786857222
8084.938893906939,10757.581681916916,18574.54551154918,-172.3990049837834
7808.939553372807,10760.532112185016,18179.63489051281,-447.88425539544295
7336.758951754446,10775.865408881356,16976.306376016903,-1012.8022447588736
7350.259405405451,10794.104432356886,16618.231429842883,-1025.945070498594
7849.239748625726,10783.979092118632,17648.870366677093,-454.7909444321328
8089.252780586813,10762.543769185992,18564.397819566468,-169.3591677378616
7819.176652333338,10760.040373806998,18189.961396451163,-443.0562785930966
7346.481960592504,10771.551522201482,16989.471553501076,-1008.5554133123652
7354.238015918496,10794.439708523716,16611.078871617185,-1037.3221084263455
7849.463266070279,10785.90134214179,17631.570116468683,-474.3040173416159
8094.371330067079,10764.93540584271,18568.55524403516,-179.84213588740062
7828.184405348827,10767.327042499428,18210.636760072324,-443.0562785930966
7347.532492581903,10780.46986823915,17001.787364695952,-1013.115169181248
7342.101018679264,10801.033473138032,16604.14983083604,-1052.9906812895158
7842.087190400028,10797.881877169832,17626.697436177426,-479.6907877553449
8097.567629524187,10774.233731536118,18571.796246981172,-178.72454866463528
7835.716943230265,10769.763382645056,18224.405434656797,-440.7764006586553
7355.266196163439,10779.93342637222,17018.729986993076,-1011.081160435815
7335.239033131485,10800.295865571006,16591.699909174433,-1068.1004605413034
7829.994896649707,10791.735147444624,17599.942398064424,-498.39919786443687
8093.700777733419,10771.171542545742,18567.884691701496,-184.42424350073856
7839.069704898561,10769.85278962288,18247.785359357043,-438.5859297020352
7356.4955421084815,10784.113202585364,17046.69201930666,-1010.209442402058
7323.750236481457,10802.553391760992,16593.84567664214,-1082.204411292602
7819.377818033436,10797.367787047362,17595.695566617916,-518.8063405521323
8087.263475330291,10774.121972813842,18575.77485749422,-204.51846176605963
7832.900623428896,10771.059783823464,18268.68424042276,-459.0824793675517
7349.946480983077,10780.313406027964,17060.818321802417,-1038.3949921602002
7315.8153671998225,10805.123842373354,16584.748516648833,-1116.223766353579
7812.135852829916,10802.061653382976,17570.840426783612,-545.0472885426627
8084.827135184662,10774.054917580475,18557.334668318592,-222.53396779703712
7843.070667156061,10770.61274893436,18269.08657182295,-464.1563253589065
7366.017385246442,10783.107374084875,17077.202150488156,-1028.3590588997674
7316.977657911499,10804.14036561732,16582.111010803106,-1115.2849930864566
7813.119329585949,10806.487298785129,17553.62958355303,-548.2659397442269
8099.534583036254,10783.397946762794,18555.211252595334,-208.31825832346183
7866.919978489874,10782.190952562209,18291.05833662252,-435.0096505891861
7382.244751720996,10793.389176534316,17099.95622634366,-1002.498090564977
7319.324591079306,10812.052883154498,16579.026470068275,-1110.7028854731186
7800.490593968701,10800.206458593186,17523.074748882624,-555.4632014588358
8096.0924143901375,10775.239560036607,18539.676790198897,-202.68561872072445
7872.016176225684,10774.36784200285,18302.725947228188,-422.8950050944096
7384.234056977518,10780.961606617166,17114.32839802842,-997.3795410847116
7310.920335164111,10799.781775448537,16570.532807175256,-1117.3860570652553
7794.790899132598,10796.09373761341,17505.953312629856,-557.7877828821878
8100.383949325556,10774.948987358688,18542.135482088983,-191.01800811505416
7880.576894352066,10770.299824511983,18321.68022652629,-400.78912982811096
7395.566391416359,10772.445591979696,17139.228241351633,-967.8081831703404
7317.648210245158,10787.220095064651,16573.907920588008,-1090.2510392965123
7795.863782866452,10784.22496130764,17481.925187340403,-539.3028902176488
8100.674522003475,10759.638042406805,18521.30365625664,-178.1657550532526
7882.521496119678,10755.65943189376,18321.166136403812,-387.89217327739874
7396.41575770566,10764.689536653705,17150.627631023843,-954.017156841416
7302.627837971192,10779.75461241658,16561.301536715215,-1104.4443970256325
7772.550913399567,10772.624405935336,17449.895137535947,-573.0540243451625
8088.448117786422,10749.13272251281,18501.67882462488,-203.8479094324004
7872.954949492807,10735.945193284178,18320.361473603425,-405.9523827972869
7389.553772157881,10743.276565465518,17154.650945025794,-968.277569803902
7287.093375574753,10763.16961803074,16543.867176040076,-1121.5658332783978
7757.865817292431,10762.834341863912,17430.87380300448,-581.0783006046177
8088.068138130682,10747.054010278463,18505.545676415644,-194.6836942057245
7902.682769618365,10752.820760347937,18362.740381090687,-368.1555829233626
7422.053208595898,10763.996632575589,17203.310692705,-924.825778582785
7312.909640420633,10787.42126076475,16571.7621531203,-1092.8885451422389
7778.585884402501,10782.302711284485,17439.278058919677,-558.0783555601067
8102.12738539307,10750.60793764686,18510.79833636264,-168.3309874929175
7901.811051584608,10739.208547974653,18365.66845961433,-349.0224896696198
7412.03962707992,10737.733332840602,17202.036643271047,-914.566327877799
7286.400471496639,10754.631251648814,16545.16357721848,-1099.0799783563589
7753.887206779386,10753.714830126148,17391.713546718784,-565.4320794859028
8097.321760335179,10727.697399580167,18484.62444360548,-160.57493216692595
7911.712874378309,10722.377684399806,18370.652898627868,-328.59299523746915
7424.333086530339,10725.506928623548,17217.951085323224,-890.471147354978
7288.725052919991,10745.623498633326,16543.42014115097,-1088.3734927622668
7747.360497398437,10747.724562612124,17370.01000285268,-569.9247801214195
8093.119632377581,10721.416559388228,18472.912129510896,-164.5311909355153
7918.28428724817,10716.83445177489,18383.996890067683,-331.85634992794394
7431.642106967224,10724.79167280098,17233.418492486297,-900.8647085266958
7284.835849384767,10745.735257355602,16536.17817594745,-1113.049818640926
7741.079657206495,10751.926690569722,17354.274374756144,-594.0199606442405
8091.912638176995,10729.731408325602,18470.76636204319,-186.1676795682525
7916.674961647387,10719.31549540943,18395.88801811791,-355.7950682395778
7430.725685444557,10727.675047835712,17256.03845787507,-922.8811768151731
7272.497686445437,10751.099676024876,16540.693228327422,-1151.6065778263303
7717.655029017334,10752.954870814669,17336.28122046962,-648.6699758374663
8079.239199070836,10732.435969404694,18462.22799566126,-227.96544169967677
7915.982057569273,10722.131815210798,18413.21062007077,-377.1633359388514
7434.99486863552,10727.518585624526,17283.88873146638,-936.538092677366
7269.547256177338,10748.484521923603,16548.65044935351,-1166.1799152111907
7713.05056965954,10748.350411456871,17319.85268829497,-657.6330253640444
8075.97584438036,10718.9802192426,18446.73823675373,-225.17147364276332
7924.922755351396,10712.475861606104,18421.16784109686,-357.9631874517426
7452.138656632741,10716.610934330338,17302.485382853196,-907.3243626742797
7280.164334793608,10733.665315349735,16544.068341740174,-1141.525941076987
7712.692941748255,10728.79263505848,17289.94605421377,-634.2754524082485
8081.4743735163665,10697.276675376495,18425.906410921387,-189.2522203030849
7935.226909545292,10686.279617104485,18419.69262596281,-313.2373467966732
7459.760601492,10687.218390371609,17314.778842303615,-853.0990306257047
7275.716337647002,10702.819908001413,16544.31421092918,-1101.7174842020852
7710.100139391439,10708.31843713742,17283.553455299552,-604.2347078603158
8084.536562506743,10682.792744969458,18426.778128955146,-166.00640606956554
7939.518444480711,10673.49441927605,18437.46226280478,-298.97693383418726
7467.762526007,10680.311701334918,17340.10336877148,-852.2943678253137
7274.464639957505,10703.043425445963,16546.75055107481,-1127.623156025786
7694.208049083716,10703.78103301299,17258.18422534278,-656.9401212859299
8072.578379223154,10680.244646101552,18407.60033221249,-219.24826136210697
7935.271613034202,10675.39431755475,18436.523489537656,-348.84367571397735
7460.8558369703105,10685.296140348451,17349.178177020334,-903.3234004167796
7258.818418838789,10711.581791827894,16540.08973122713,-1187.6599416327408
7679.969987865686,10717.080320963898,17239.65462918933,-725.1352936190717
8069.605597210598,10695.175611397695,18402.370024009942,-291.66791339730185
7940.390162514468,10691.241704373564,18453.108483923494,-419.4751881927476
7466.622587039779,10699.958884711134,17368.467732485264,-974.4913547624772
7253.096372258231,10722.154166955252,16537.005190492295,-1270.5625618174747
7671.141048805839,10729.709056581149,17219.02396905708,-799.4995474218783
8066.610463453587,10708.564306326429,18391.685890160312,-337.0196028971199
7947.252148062247,10702.037596945476,18468.93351899785,-437.4012872459039
7473.216351654095,10706.619704558814,17389.858351928993,-974.2231338290136
7248.469561155983,10725.752797812558,16540.760283560787,-1275.1893729197232
7660.546321934024,10732.100693237864,17207.982207296158,-807.6579341480654
8064.665861685975,10709.972466227113,18389.07073605904,-331.4093150388378
7950.895482408462,10699.042463188463,18484.64679534993,-420.8162928600661
7481.084165702363,10704.004550457545,17425.039997701646,-953.2348457854804
7247.731953588957,10719.36019889834,16559.93808030344,-1263.5664658029636
7654.51135093109,10725.573983856915,17200.06968975898,-797.6220008876326
8065.314062275179,10704.652751046748,18385.516808690645,-313.0138293521201
7955.678755721898,10693.49923056355,18499.622464134987,-397.5928303710021
7485.375700637782,10697.50019282105,17438.562803097106,-929.8102175963184
7246.413200666095,10719.40490238725,16556.965298290885,-1243.874578937838
7647.068220027473,10726.244536190574,17181.36127964989,-786.0885007486941
8062.944777362916,10701.031768444987,18370.183511994303,-298.7534163896342
7966.809924460641,10690.481745062085,18505.18804850436,-371.9553794807648
7507.43687241517,10699.64596028876,17468.782361600683,-889.4876705989445
7257.186741493552,10717.862632019836,16568.029411796262,-1217.1418925692908
7644.497769415113,10723.249402433565,17162.87638698535,-776.2760849328143
8063.369460507568,10700.763547511524,18357.24185195468,-285.7447011166455
7973.269578608225,10689.230047372586,18515.603961420533,-348.6648617583349
7515.014113785519,10692.649864274248,17493.61514969053,-862.7549842303973
7253.610462380703,10712.766434284023,16575.5619496777,-1200.6016016723636
7636.361734433382,10721.953001255157,17147.05135191099,-758.5064480908452
8065.694041930919,10699.467146333116,18345.618944837923,-253.42407863427147
7987.015901448239,10688.000701427543,18523.918810357907,-304.81073913702244
7529.922727337209,10689.274750861496,17504.83572540709,-815.1904720295039
7256.4714856709825,10701.63526554528,16569.70579263041,-1166.1128599778249
7624.917641272264,10702.752852768046,17118.66463645275,-743.4860758168788
8058.094448816115,10681.116364135309,18324.20597364974,-239.6554040498023
7992.670892795431,10676.78012571098,18527.360979004025,-285.4317766942712
7543.244367032572,10682.189247869164,17528.841498952093,-792.928134552018
7267.7367648764575,10698.751890510546,16586.804877138722,-1154.0205662275037
7630.013839008074,10696.717881765117,17109.34395901489,-749.8339712421861
8067.146905320515,10674.768468710005,18316.986360190676,-236.63791854833588
8000.046968465683,10660.373945280784,18535.4746622413,-280.00030279163155
7548.20645430165,10661.357422036815,17542.610173536563,-788.8377653166968
7262.43940144055,10680.222294357098,16581.507513702814,-1160.9272552641935
7620.626106336846,10689.252399117042,17090.635548905797,-759.8252010137082
8064.688213430431,10670.611044241316,18305.184639118277,-242.82935176245596
8000.829279521618,10652.349669021329,18542.314296044624,-278.97212254668744
7550.620442702823,10652.617889954792,17561.85502551258,-779.5394396232891
7257.38790719365,10671.169837852698,16583.98855733735,-1158.0885837183696
7604.868126495854,10673.025032642488,17072.66474636373,-766.0836894611942
8048.125570789048,10648.326355019371,18291.23715057816,-248.7525640431123
7999.86815451004,10633.462444956594,18552.19376709387,-272.40070967682715
7558.644718962279,10639.139788048244,17586.53135139124,-766.6871865614876
7253.699869358525,10656.171817323187,16593.309234775214,-1157.7756592959952
7597.581457803423,10660.373945280784,17060.28187993549,-767.1342214505937
8046.06921029916,10639.408008981707,18282.564673729503,-235.56503481448112
8004.383206890012,10629.796758865925,18572.735020248296,-247.29970065351733
7562.7350881976,10634.155349034709,17617.73438665085,-745.2295118843928
7248.201340222519,10649.041610841943,16608.10608960463,-1157.194513940157
7580.549428528479,10649.73451492006,17042.534594837976,-794.8056810862638
8031.227651980836,10624.521747174473,18261.9116618528,-278.8380120799556
8004.003227234272,10616.09513951482,18574.992546438283,-289.96918081869853
7564.567931242935,10622.800662851414,17627.97148561138,-789.2624484613477
7243.932157031555,10639.899747359725,16601.378214523582,-1207.4188837312322
7573.508629025058,10647.834616641358,17018.685283504165,-844.605367732688
8029.707733357875,10625.10289253031,18242.80092034351,-316.54540497605865
7999.890506254495,10608.786119077937,18567.57176727912,-322.5803759789915
7557.840056161887,10610.77542433446,17630.45252924592,-816.6656871635541
7230.208185935997,10630.53436643295,16594.47152548689,-1243.2263783486342
7547.133570567796,10643.610136939304,16989.963291879092,-895.2320689239584
8011.111081971059,10632.367209478283,18223.690178834226,-359.2372368856951
7993.006168962261,10633.708314145602,18570.56690103613,-353.1575623938516
7566.914864410743,10648.616927697292,17657.45343654793,-829.7861611588194
7235.237328438441,10667.34768955084,16613.80578444073,-1251.3400615859107
7548.608785701846,10679.752907723536,16990.857361657305,-901.9375922605506
8016.63196285152,10658.317584790895,18219.04101598752,-355.8174199840331
8009.367645903546,10644.638317184248,18590.236436156803,-327.74362894816744
7584.25981810806,10647.856968385811,17693.149172443053,-798.0690357767387
7243.999212264921,10663.212616826608,16631.687180004978,-1237.5937387458966
7549.59226245788,10676.713070477614,16979.770896407474,-902.764606805397
8019.537689630711,10658.33993653535,18203.50655359108,-359.37134735242694
8019.381227419523,10646.761732907502,18594.192694925398,-328.3471260484607
7595.726263013633,10649.175721308677,17711.812879063236,-792.7493205963756
7241.808741308301,10663.369079037797,16634.928182950996,-1237.9290149127264
7537.410561729737,10676.176628610689,16956.010992051484,-909.023095252883
8010.194660448392,10658.563453979905,18175.49981778858,-355.57155079502473
8012.228669193825,10642.559604949904,18580.781648252207,-319.80875966653343
7593.513440312558,10646.44880848513,17715.99265527638,-774.0185587428283
7235.505549371905,10662.363250537306,16634.34703759516,-1222.9980496165813
7522.658410389235,10674.544951265449,16933.07810224034,-909.7383510754528
7998.884677754007,10657.892901646246,18158.87011991383,-355.7056612617566
8017.928364029928,10648.236948041553,18592.985700724807,-306.7553409046341
7603.147042172795,10655.613023711803,17746.055751568765,-762.8426865151747
7237.584261606248,10672.645052986749,16657.302279150757,-1226.3731630293323
7515.841128330366,10683.128021136286,16931.044093494904,-923.2164529820028
7999.53287834321,10667.30298606193,18152.388114021796,-364.0875654324967
8021.951678031884,10652.997869610534,18604.429793885924,-312.5220909741034
7612.378312632837,10657.803494668424,17766.79817042329,-763.6473493155657
7243.060438997798,10673.092087875852,16664.8348170322,-1234.6433084777962
7511.840166072866,10681.742212980058,16916.761328787965,-946.3952119821564
7999.979913232317,10663.771410437992,18139.692323171177,-380.56080109605807
8030.043009524705,10646.87349162978,18605.860305531063,-317.148902076352
7623.867109282864,10656.931776634668,17781.304452574786,-758.4840963463898
7250.615328623692,10676.82482919989,16671.182712457503,-1225.255575806567
7513.114215506818,10692.78397474098,16905.384290860213,-939.9802613234832
7998.4376428649,10674.88022743228,18128.85172711036,-379.62202782893513
8032.009963036771,10661.916215648202,18617.617323114555,-312.1868148072737
7634.663001854778,10674.410840798717,17809.624112799658,-751.0633171872279
7255.555064148315,10699.847125988856,16689.77936384432,-1230.0835526089136
7503.39120666876,10717.281486663996,16893.806087232362,-964.1201453352148
7993.743776529286,10703.06577719042,18117.720558371613,-394.821214058544
8039.050762540193,10688.000701427543,18627.183869741424,-318.3335445324832
7636.562900133479,10695.488535820072,17830.61240084319,-755.8465905006636
7250.369459434683,10718.17555644221,16694.65204413558,-1243.5169510265532
7498.943209522154,10738.292126451985,16876.30467132386,-979.8781251762064
7992.760299773253,10718.197908186665,18095.86055229432,-402.0855310065188
8045.108085287582,10696.561419553927,18622.15472723898,-309.30343977253915
7650.577443906956,10682.92685543619,17840.849499803724,-740.1333141485827
7255.979747292966,10680.624625757291,16697.02132904784,-1238.2195875906457
7494.29404667545,10691.532277051483,16854.422313502113,-990.405796814656
7993.609666062554,10672.801515197936,18069.06081069241,-416.2788887356388
8058.250911027302,10654.16016032221,18617.23734345881,-316.07601834249715
7667.877694115365,10654.651898700226,17856.830997089266,-736.6464420135549
7263.668747385592,10664.933701149666,16710.320616998746,-1240.38770680281
7483.207581425618,10676.73542222207,16839.51369995042,-1009.6059453017648
7981.450317078868,10661.782105181468,18050.173586627672,-433.3109180105827
8054.384059236534,10646.225291040577,18619.09253824861,-322.4462655122597
7670.291682516538,10648.125189319277,17876.187607787564,-733.8077704677308
7267.021509053888,10663.59259648235,16725.609210206178,-1236.744372456595
7482.224104669583,10678.344747822852,16831.735292879974,-1012.981058714516
7982.38909034599,10662.519712748492,18035.488490520536,-435.5460924561134
8062.229521540346,10642.805474138911,18624.903991806983,-321.1051608449413
7686.742566435643,10648.862796886302,17905.669558724112,-724.8000174522422
7277.43742197006,10666.49832326154,16743.378847048145,-1233.145741599291
7483.229933170072,10684.558532781426,16827.689627133564,-1021.3629628852564
7984.624264791521,10668.241759329052,18026.7042549496,-443.30214778210495
8072.64543445652,10650.941509120645,18633.017675044262,-316.2548322981396
7699.706578219721,10652.461427743609,17926.993122934477,-708.125616088583
7286.691044174558,10668.174704095689,16764.03185892485,-1215.130235568313
7480.190095924151,10681.272826346496,16821.207621241527,-1015.082122693315
7978.76810774423,10662.29619530394,18011.66153093118,-434.0038220886972
8078.4568880149,10646.269994529486,18640.997247814805,-294.4842331986705
7716.515090050112,10651.947337621134,17954.709286059056,-687.1149763005944
7298.179840824586,10666.543026750447,16779.812190510296,-1210.3693139993327
7477.463183100604,10677.428326300183,16811.395205425644,-1029.789570544907
7976.421174576423,10657.959956879611,17996.350585979293,-453.785115931644
8080.334434549146,10636.211709524598,18634.00115180029,-314.8690241419106
7709.988380669163,10631.696657144626,17952.228242424517,-708.5279474887785
7279.382023737672,10638.603346181317,16767.921062460075,-1241.840570192405
7447.668307741679,10645.599442195826,16775.855931741706,-1073.7331001440407
7956.036383633183,10633.462444956594,17963.515873374447,-488.5420785596465
8075.349995535612,10623.448863440615,18633.12943376654,-328.1906638372736
7724.271145376104,10638.603346181317,17988.482771931027,-701.9788863633736
7302.337265293273,10666.543026750447,16815.954961294527,-1225.4343897622098
7468.164857407196,10689.341806094862,16803.303873932826,-1059.6738528816525
7973.649558263965,10673.472067531597,17980.570254393846,-474.95221793081976
8095.578324267665,10654.316622533395,18659.906823623995,-315.2043003087402
7741.14671243986,10658.004660368522,18019.05995834589,-692.3676362475916
7301.666712959613,10674.232026843076,16823.28633347587,-1233.1904450882012
7455.469066556581,10693.49923056355,16783.83550451225,-1084.014902593482
7968.463953550334,10685.720823493102,17962.39828615168,-496.05226469662966
8102.976751682371,10667.459448273115,18663.818378903678,-326.80485568104456
7753.171950956816,10669.426401785184,18033.677999219657,-700.771892162787
7312.060274131331,10684.089146147866,16830.70711263503,-1245.394497560799
7455.156142134207,10698.483669577085,16766.13292290365,-1109.540594761443
7964.127715126004,10679.73055597908,17935.55384106086,-518.9851545077747
8104.273152860779,10661.24566331454,18656.956393355893,-340.99821341016457
7764.481933651202,10663.927872649178,18047.89370869323,-706.80686316572
7324.30903009284,10678.747079223049,16847.80619714334,-1247.8308377064277
7454.7538107340115,10695.64499803126,16755.091161142725,-1123.689249001652
7963.837142448086,10680.132887379275,17915.481974539995,-534.9219483044086
8110.397530841534,10659.524578991482,18649.490910707824,-345.6250245124131
7771.142753498883,10655.903596389722,18055.605060530317,-702.7164939303988
7324.890175448678,10665.358384294315,16851.87421463421,-1250.066012151958
7449.925833931665,10689.766489239511,16740.294306313313,-1138.9554904646268
7962.71955522532,10680.177590868188,17894.91836964111,-554.6361869139895
8116.544260566743,10658.943433635644,18650.496739208316,-358.9913676966867
7782.16216351535,10657.24470105704,18081.06369746491,-705.9127933875077
7327.997067927965,10668.219407584598,16871.81197068834,-1258.5373233005196
7443.823807695367,10690.414689828718,16734.616963221666,-1155.56283659492
7955.745810955264,10681.138715879764,17877.238139776964,-563.196905040372
8120.411112357511,10664.486666260562,18651.63667817553,-352.10703040445213
7795.416747977347,10667.30298606193,18100.77793607449,-688.1655082899938
7342.011611701443,10678.836486200868,16891.52620929792,-1240.588872502908
7439.778141948956,10691.06289041792,16728.581992218733,-1158.982653496582
7947.788589929175,10676.601311755338,17857.76977035639,-572.0258441002184
8123.495653092344,10658.563453979905,18646.78634962873,-348.1731233803181
7809.207774306271,10657.781142923968,18120.26865723952,-667.579551646656
7354.841513018789,10669.024070384989,16911.955703730073,-1214.90671812376
7442.929737917154,10685.005567670532,16721.943524115508,-1137.9049584752272
7948.749714940753,10669.806381440923,17843.62111611618,-547.7518496217549
8125.775531026785,10644.10187531732,18647.23338451784,-322.62507946790214
7813.812233664064,10646.605270696316,18129.74579688857,-651.2404264498266
7354.349774640772,10660.284538302963,16916.291942154403,-1215.040828590492
7439.174644848663,10682.435117058172,16707.616055919654,-1155.6745953171965
7954.00237488775,10676.78012571098,17826.454976374505,-570.1482975659726
8147.009688259326,10657.781142923968,18654.520053210264,-337.533693019592
7830.285469327626,10652.416724254696,18149.907070387253,-667.2442754798265
7360.384745643705,10661.558587736916,16930.038264994415,-1236.163227100757
7430.680981955646,10680.334053079374,16694.58498890221,-1192.040883545981
7943.228834060292,10674.50024777654,17798.76116499438,-608.1015596510839
8137.80076954374,10654.271919044486,18635.83399484563,-371.1954201692844
7831.69362922831,10658.20582606862,18155.22678556762,-686.0420925667397
7363.178713700619,10671.795686697447,16936.833195308827,-1253.2846633535223
7424.176624319151,10692.269884618509,16676.68124159351,-1221.2769652935226
7933.818749644608,10686.950169438143,17771.827312925736,-635.7059640533881
8135.99027824286,10667.839427928857,18627.452090674888,-382.594809841491
7835.918108930363,10671.460410530615,18166.06738162844,-688.7466536458319
7366.732641069012,10686.816058971412,16947.02559078045,-1250.937730185715
7411.011446834976,10704.20571615764,16661.54911059727,-1222.2827937940117
7922.441711716857,10697.63430328778,17748.02270508083,-630.3638971285698
8141.153531212036,10681.272826346496,18619.96425628236,-362.3217776205275
7852.637213782932,10685.653768259735,18178.092620145395,-654.6602433514886
7382.647083121191,10699.288332377477,16964.437599711135,-1217.6783344362182
7417.962839360576,10719.539012853982,16654.82123551622,-1204.9154883522378
7928.5213862087,10712.051178461454,17730.923620572525,-614.650620776489
8150.317746438712,10690.01235842852,18617.840840559107,-343.3674983224271
7864.751859277709,10691.956960196134,18196.711623276668,-631.906167495986
7392.683016381624,10706.9773324701,16983.88361738725,-1197.8076336154502
7418.901612627699,10728.45735889165,16649.613279058132,-1195.7289213811066
7922.66522916141,10718.68964656468,17709.465945895427,-609.0626846626622
8154.989261029871,10699.869477733311,18614.532782379723,-325.06141961353063
7874.206647182304,10698.170745154708,18210.77087053905,-605.7322747388214
7396.974551317043,10708.586658070884,16996.13237334876,-1173.8242118149058
7417.001714348998,10732.994763016077,16643.287735377282,-1181.6696741187184
7923.38048498398,10726.557460612948,17690.578721830694,-595.7857484562097
8161.471266921911,10702.439928345671,18606.284988675718,-305.23542228167327
7886.790679310642,10701.523506823003,18220.248010188105,-580.0501203596735
7407.278705510939,10709.793652271468,17008.403481054724,-1149.170237680702
7414.788891647922,10731.45249264866,16631.843642216165,-1172.3266449364
7913.299848234636,10722.64590533327,17664.717753495905,-593.5729257551344
8159.571368643209,10700.540030066972,18599.802982783676,-290.8856023413661
7888.109432233505,10695.108556164332,18237.05652201849,-553.362137480037
7408.262182266973,10704.339826624371,17031.71635052161,-1118.525996032476
7408.664513667169,10726.244536190574,16637.185709140984,-1153.2159034271126
7903.710949863309,10717.281486663996,17650.882023678067,-582.9781988833188
8156.330365697189,10695.622646286804,18592.80688676916,-276.0887475119528
7899.195897483337,10697.410785843227,18247.025400045564,-531.0550965136405
7419.393351005716,10707.290256892476,17039.382998869776,-1102.008056880004
7399.813222862866,10725.082245478898,16613.694025718454,-1156.456906373132
7897.497164904734,10722.467091377628,17626.406863499506,-581.1230040935283
8161.292452966268,10703.199887657152,18586.347232621574,-262.5435903720368
7910.014141799706,10704.317474879916,18260.83877811894,-513.4419218828585
7425.94241213112,10713.74991104006,17057.152635711747,-1089.133452073747
7398.181545517629,10730.9831060151,16612.129403606585,-1155.9204645062048
7889.696406089832,10723.204698944654,17606.893790590024,-589.8401844310981
8160.644252377064,10704.742158024568,18582.323918619622,-267.34921542992777
7911.578763911577,10705.412710358229,18271.411153246303,-515.7441515617552
7427.462330754081,10711.78295752799,17066.00392651605,-1090.1169288297808
7396.639275150213,10732.8830042938,16604.641569214054,-1161.5978075978528
7889.271722945181,10726.959792013144,17591.024052026754,-590.0189983867406
8166.18748500198,10707.670236548214,18582.94976746437,-251.6135873333916
7924.207499528826,10706.26207664753,18296.8697901809,-483.5799912905683
7433.631412223746,10707.558477825938,17095.351766985867,-1058.2209894920577
7383.205876732573,10721.416559388228,16601.601731968134,-1148.4773336025876
7874.206647182304,10713.302876150952,17573.433229140428,-581.0559488601624
8160.04075527677,10689.140640394764,18574.880787716007,-235.8332557479448
7925.705066407331,10686.391375826764,18307.33040658598,-463.4857730252472
7442.192130350128,10694.482707319585,17109.925104370726,-1032.6729455796417
7385.821030833845,10710.374797627306,16591.409336496512,-1137.457923586121
7876.46417337229,10706.329131880895,17552.33318237462,-573.6351697010005
8169.964929814927,10683.619759514304,18567.236491112293,-229.08302892244208
7940.881900892485,10680.199942612642,18316.42756657929,-459.0824793675517
7452.362174077293,10688.425384572194,17121.3915492763,-1038.7526200714851
7381.8424203208,10704.563344068927,16581.14988579153,-1161.5978075978528
7868.216379668282,10703.870439990813,17522.158327359954,-607.4757108063353
8169.249673992357,10687.06192816042,18549.735075203786,-256.57567460246975
7953.644746976465,10688.335977594374,18327.49168008467,-472.89585744093154
7469.349499863327,10695.756756753535,17142.603354764386,-1045.8604748082728
7391.028987291931,10715.336884896384,16581.529865447268,-1175.299426948956
7874.184295437849,10714.420463373715,17506.020367863224,-623.5242633252458
8181.811354376239,10693.141602652264,18547.969287391817,-258.4755728811709
7959.143276112471,10685.564361281917,18336.90176450035,-474.8404592085432
7471.115287675297,10691.152297395742,17156.595546793407,-1052.4542394225884
7382.624731376735,10711.917067994722,16579.317042746192,-1194.0525405469589
7861.309690631591,10708.877230748802,17486.909626353936,-648.5135136262791
8178.749165385862,10688.06775666091,18540.280287299192,-275.1052707559193
7968.486305294789,10679.618797256804,18350.581032107,-474.6392935084455
7485.353348893327,10688.291274105462,17183.64115758433,-1040.8983875391946
7388.100908768286,10710.061873204932,16585.530827704766,-1195.0807207919026
7860.326213875558,10706.507945836538,17472.895082580457,-657.6330253640444
8173.831781605695,10679.149410623242,18532.278362784196,-282.9283813152768
7969.67094775092,10673.9191024207,18364.193244480284,-478.0814621545628
7486.225066927084,10682.88215194728,17201.790774082037,-1044.5864253743202
7378.489658652504,10703.64692254626,16583.720336403887,-1212.8950611227824
7847.228091624748,10704.876268491302,17453.337306182064,-677.8166506071867
8174.815258361728,10680.915198435212,18525.3716737475,-290.9303058302767
7981.29385486768,10679.887018190268,18382.476971444725,-469.20781960580587
7499.725520578089,10691.97931194059,17229.93162035127,-1029.0296112334263
7380.166039486652,10711.246515661063,16592.146944063537,-1210.168148299235
7843.137722389427,10709.368969126816,17451.057428247623,-680.7000256419213
8174.547037428265,10688.15716363873,18532.211307550824,-291.62320990839123
7979.52806705571,10682.859800202825,18395.575093695534,-479.0872906550516
7496.372758909793,10691.26405611802,17238.849966388938,-1043.5358933849209
7372.119411482741,10710.866536005324,16582.960377092408,-1232.6763549657292
7828.676143726843,10705.792690013968,17428.16924192539,-707.7009329439322
8165.449877434955,10679.842314701356,18521.348359745545,-308.11879731640784
7983.998415946772,10676.48955303306,18411.06485260306,-477.5003167987248
7502.34067467936,10670.87926517478,17261.26876607761,-1037.2774049374348
7363.26812067844,10683.887980447767,16580.479333457868,-1236.6326137343185
7816.963829632263,10682.658634502726,17410.578419039062,-715.4122847810131
8166.835685591184,10659.59163422485,18517.32504574359,-306.57652694899167
7992.894410239985,10652.975517866078,18428.14158536692,-464.6033602480126
7510.00732302753,10659.748096436037,17278.70312675275,-1024.91689025365
7358.015460731442,10672.712108220114,16573.885568843554,-1240.6559277362735
7812.582887719022,10669.180532596176,17388.316081561577,-721.9166424175075
8166.545112913265,10647.63345094126,18506.305635727123,-303.40257923633806
7999.10819519856,10644.794779395435,18437.931649438346,-453.98628163174175
7512.220145728606,10645.15240730672,17293.835257748993,-1016.1550064271696
7354.126257196219,10660.39629702524,16567.962356562897,-1239.7618579580617
7808.604277205977,10664.933701149666,17366.992517351213,-720.8884621725634
8175.306996739745,10645.688849173648,18496.91790305589,-290.7961953635449
8014.799119806185,10640.838520626849,18448.816948988075,-438.1165430684737
7529.162768025729,10645.085352073354,17311.828412035517,-1000.4864335639994
7356.763763041946,10662.095029603845,16568.029411796262,-1241.170017858746
7802.614009691955,10664.44196277165,17344.95369731828,-733.9418809344627
8172.3789182161,10641.553776449417,18481.361088915004,-299.4016169788381
8015.827300051129,10633.82007286788,18454.69545777982,-437.5801012015464
7532.448474460659,10637.463407214094,17333.934287301814,-991.2104596150472
7357.434315375604,10661.312718547908,16576.590129922646,-1231.4023055317766
7800.758814902165,10664.017279627,17333.599011134986,-731.9525756779403
8174.524685683809,10640.212671782096,18470.43108587636,-296.697055899746
8027.606669379076,10634.669439157182,18463.412638117392,-428.3935342304152
7545.658355433746,10642.24668052753,17351.122778787947,-979.341683309279
7357.45666712006,10665.313680805408,16575.539597933246,-1233.10103811038
7788.241838007193,10668.711145962614,17312.27544692462,-743.284910116781
8167.66270013603,10646.806436396411,18464.73139104025,-300.049817568042
8022.39871292099,10634.62473566827,18473.58268184456,-428.34883074150457
7547.82647464591,10637.57516593637,17378.324851790054,-975.9889216409828
7350.5052745944595,10649.510997475503,16582.826266625674,-1248.1437621288017
7768.527599397612,10648.68398293066,17287.330900112498,-767.8271255287082
8156.687993608474,10624.477043685562,18442.17848088485,-311.96329736272065
8027.249041467791,10617.413892437684,18478.544769113632,-420.5704236710577
7551.514512481036,10618.419720938173,17393.769907208673,-961.1026598337484
7345.543187325381,10636.926965347167,16584.390888737547,-1240.3430033138995
7767.924102297319,10641.084389815856,17279.9771761867,-764.67552956051
8164.913435568027,10617.637409882238,18447.07351292056,-307.3141345160168
8039.587204407121,10605.388653920729,18501.09767926904,-416.1671300133622
7565.886684165798,10608.517898144471,17421.240201144243,-955.8723516312066
7351.846379261778,10629.215613510089,16588.928292861976,-1247.2496923505894
7766.672404607822,10631.00375306651,17263.146312611858,-779.1147564786382
8162.275929722301,10605.746281832016,18435.4506058038,-313.2149950522179
8040.794198607708,10596.38090090524,18511.267722996203,-413.1719962563511
7568.658300478256,10597.923171272656,17441.870861276493,-951.4467062290556
7343.665640791135,10617.14567150422,16598.42778425548,-1249.618977262852
7753.395468401369,10625.81814835288,17255.479664263687,-786.5578873822556
8162.633557633586,10611.088348756832,18437.126986637948,-312.9914776076648
8049.578434178643,10604.516935886972,18533.70887442933,-402.5325658956249
7572.525152269024,10600.67243584066,17460.60162313004,-942.7071741470306
7336.624841287714,10616.452767426106,16591.968130107896,-1256.7044802551843
7739.760904283632,10622.465386684584,17227.562335439008,-801.0641695337498
8151.480037150388,10601.834726552335,18412.428309014835,-320.7698846781117
8045.935099832428,10590.122412457757,18532.703045928843,-404.5218711521472
7577.308425582461,10594.123374715256,17481.36639372902,-939.5779299232876
7338.815312244334,10614.86579356978,16599.031281355772,-1266.941579215715
7738.91153799433,10620.900764572712,17216.721739378183,-821.7395331549088
8154.56457788522,10597.856116039293,18409.70139619129,-339.2547773426506
8055.076963314648,10584.623883321749,18543.40953152293,-421.5539004270912
7584.081004152418,10582.18754317612,17492.56461770113,-962.4884679899774
7324.130216137197,10595.687996827126,16582.781563136767,-1310.549832648019
7715.777482483088,10602.639389352726,17185.49635237412,-871.248647123414
8135.364429398111,10579.974720475046,18379.526541176623,-386.21579244325073
8049.511378945277,10574.252673894489,18540.973191377307,-449.9182641408759
7594.005178690574,10587.306092656385,17514.69284471188,-966.757651180941
7345.878463492211,10615.871622070268,16608.53077274928,-1302.0785214994576
7727.087465177473,10622.398331451215,17180.847189527416,-874.0426151803274
8153.983432529382,10601.745319574517,18378.341898720493,-378.1915161837955
8072.287806545235,10588.490735112517,18556.328839818103,-435.0543540780967
7609.092606197907,10588.267217667964,17536.57520253363,-954.6206539417092
7338.480036077504,10603.466403897572,16605.58034248118,-1307.0853122574465
7708.870793446397,10604.494584142516,17154.49448281461,-890.8064235218077
8143.455760890933,10588.08840371232,18357.890052543888,-386.7522343101781
8075.797030424718,10585.09326995531,18559.77100846422,-431.7686476431665
7617.742731302111,10587.86488626777,17554.031914953222,-948.697441661053
7337.988297699488,10602.57233411936,16610.09539486115,-1307.5099954020973
7703.349912565936,10603.309941686386,17145.285564099024,-889.4653188544893
8138.359563155122,10576.24197915101,18354.112607730935,-380.5384493516028
8069.650300699509,10560.528702798929,18570.231624869302,-419.4528364482923
7615.842833023409,10561.75804874397,17578.171798964955,-924.8481303272404
7330.612222029236,10578.678319296638,16622.344150822657,-1297.4964138861196
7695.95148515123,10588.423679879152,17132.410959292767,-893.3321706452574
8135.163263698014,10565.602548790284,18334.845404010463,-379.4879173622033
8075.439402513433,10552.839702706302,18572.310337103645,-408.7910543431109
7626.437559895225,10552.035039905912,17596.56728465167,-909.4924818864444
7332.892099963677,10571.861037237768,16624.24404910136,-1294.747149318117
7689.223610070183,10585.406194377683,17124.029055122024,-896.215545679992
8133.196310185946,10566.80954299087,18339.67338081281,-379.1526411953737
8082.077870616659,10556.237167863508,18593.902122247477,-408.6122403874684
7635.534719888535,10559.70168825408,17624.28344777625,-908.6207638526874
7332.646230774669,10573.783287260923,16637.029246929796,-1302.682018599751
7681.288740788548,10585.585008333328,17111.735595671606,-913.3369819327572
8130.804673529229,10569.156476158676,18327.603438806946,-388.5180221221474
8083.508382261799,10555.410153318662,18599.57946533912,-406.399417686393
7639.915661801775,10555.208987618566,17638.655619461017,-895.6567520686093
7336.468379076527,10572.486886082515,16641.276078376304,-1284.9347335022371
7678.628883198367,10581.137011186722,17094.792973374482,-898.3613131477015
8132.123426452092,10556.460685308062,18322.14961315985,-361.0030246976644
8096.2712283457795,10535.472397264528,18618.39963417049,-360.5559898085583
7657.595891665923,10532.186690829598,17675.088962923164,-836.2681670508584
7339.508216322448,10542.066161878844,16656.989354728383,-1233.9280526552263
7673.555037207012,10545.553034013872,17083.393583702276,-859.6927952400202
8132.570461341198,10523.067179091831,18308.33623508647,-325.75432369164514
8105.614257528098,10512.785376642392,18621.30536094968,-328.3247743040054
7665.731926647655,10519.84852789027,17685.437820605974,-821.314850010258
7339.776437255912,10539.965097900043,16653.368372126624,-1246.2885673390113
7664.346118491426,10548.70462998207,17058.873720034804,-887.3195513867797
8129.262403161812,10530.867937906736,18290.454839522223,-352.4423065712818
8107.625914529075,10519.200327301063,18631.944791310405,-348.06136465804155
7666.625996425867,10521.8825366357,17705.800259804757,-837.0504781067942
7331.215719129529,10539.94274615559,16656.96700298393,-1276.552829331497
7646.174150249261,10554.069048651343,17037.348990124345,-937.7450868779524
8113.75029250983,10541.395609545183,18267.767818900087,-407.27113572015
8100.026321414271,10532.231394318507,18624.903991806983,-401.9961240286975
7671.342214505937,10541.105036867266,17715.54562038727,-890.3146851437909
7332.69093426358,10561.266310365952,16664.477189120913,-1332.2533765141222
7643.55899614799,10574.587950061315,17024.89906846274,-1001.2240411310246
8114.487900076855,10558.382935331218,18253.03801930404,-462.0776131245629
8103.98258018286,10541.79794094538,18627.40738718598,-444.3303280270491
7675.477287230169,10543.94370841309,17738.858489854156,-912.442912154545
7325.717189993524,10557.399458575184,16671.696802579976,-1358.1143448489124
7628.471568640658,10568.530627313929,17009.923399677682,-1023.8440065197954
8102.574420282176,10543.47432177953,18235.91658305128,-469.9901306617416
8105.971885439383,10525.615277959738,18631.02836978774,-429.3099557530828
7683.523915234079,10523.469510492028,17749.117940559143,-885.7102257859976
7325.873652204711,10531.292621051389,16667.67348857802,-1330.8899201023485
7619.530870858535,10541.32855431182,16981.13435281925,-1004.979134199516
8101.121556892581,10523.625972703216,18204.579437324934,-444.82206640506587
8113.415016343,10506.571591683816,18622.311189450167,-398.1516239823847
7696.957313651719,10508.292676006877,17759.623260453136,-848.9639579014729
7335.171977898119,10520.161452312645,16673.127314225116,-1298.837518553438
7618.770911547054,10530.979696629012,16967.4550852126,-982.0015408994605
8100.674522003475,10513.098301064769,18191.280149374023,-417.57528991404655
8119.2264699013795,10496.803879356848,18625.06045401817,-358.1643531518404
7703.774595710587,10497.094452034766,17775.068315871755,-802.8523090901743
7335.104922664753,10507.152737039654,16676.72594508242,-1264.2817216255337
7613.026513222041,10518.686237178594,16945.751541346497,-958.6439679436646
8092.359673066101,10497.943818324067,18169.286032830005,-390.37321691193785
8119.56174606821,10482.699928605549,18628.36851219756,-311.27039328460614
7712.044741159051,10484.778640839892,17797.37535683815,-747.6882037744765
7340.290527378384,10498.703777635548,16692.01453828985,-1213.5432617119864
7607.997370719597,10507.644475417672,16941.63882036672,-921.1377407476592
8092.627893999565,10490.590094398272,18163.31811706044,-359.9077892193543
8125.507310093321,10477.447268658552,18635.610477401075,-296.13826228836325
7718.19147088426,10481.247065215954,17817.53663033684,-736.4452763134572
7342.525701823914,10498.100280535256,16704.531515184823,-1210.972811099626
7602.901172983787,10513.835908631792,16929.948858016596,-937.9686043225056
8093.633722500053,10500.022530558412,18153.21512856664,-376.9621702387536
8135.118560209104,10485.896228062658,18647.25573626229,-309.61636419491344
7731.8707384909085,10489.204286242044,17846.839767317746,-754.3937271110686
7349.499446093971,10507.957399840046,16725.430396250536,-1245.260387094067
7601.448309594191,10525.0341326039,16926.3949306482,-983.9684944115276
8093.1643358664915,10510.25962951894,18145.23555579609,-417.4411794473147
8139.745371311352,10492.199419999057,18655.45882647739,-337.2654720861283
7734.664706547822,10486.186800740576,17859.110875023707,-772.4539366309568
7343.240957646484,10498.03322530189,16726.25741079538,-1258.6714337672513
7583.052823907474,10508.1809172846,16902.567971058845,-1001.2463928754798
8080.490896760332,10487.259684474431,18126.370683475816,-422.6938393943119
8132.413999130011,10462.605710340227,18656.53171021124,-333.5103790176367
7740.945546739763,10461.957509751024,17883.362517757716,-754.7513550223536
7347.487789092993,10472.060498244822,16742.88710867013,-1242.6675847372514
7578.649530249779,10480.621216371204,16894.409584332658,-991.4563288040554
8076.042899613727,10454.44732361404,18108.8245640784,-410.3109729660717
8142.382877157078,10428.116968645689,18660.59972770211,-303.02259958059784
7752.747267812165,10423.378398821164,17897.555875486836,-715.5687469922003
7352.606338573259,10434.286050115354,16745.703428471497,-1206.2565930195562
7571.899303424276,10439.739875762449,16874.136552111693,-969.95395063805
8068.26449254328,10415.935267917546,18082.04717422094,-391.44610064579257
8140.795903300751,10394.030558351344,18651.12258805306,-279.2179917356958
7760.950358027263,10393.829392651249,17912.039805893877,-687.6514181675218
7353.589815329292,10406.14520384612,16751.69369598552,-1199.9981045720704
7562.466867264136,10416.82933769576,16855.919880380618,-983.9461426670722
8059.748477905808,10398.72442468696,18056.27561286397,-406.6676386198567
8138.448970132944,10380.731270400438,18644.19354727192,-293.2325355091734
7763.073773750517,10383.927569857547,17924.802651977858,-702.2694590412926
7349.365335627239,10396.779822919349,16764.12126590267,-1223.132160083313
7553.034431103997,10415.979971406456,16853.371781512713,-1018.8819192507171
8053.981727836339,10405.944038146024,18053.816920973888,-443.7268309267558
8140.751199811841,10391.34834901671,18656.799931144706,-323.63090796839094
7764.593692373478,10390.744851916415,17951.244765668485,-729.9409186769627
7349.633556560702,10404.91585790108,16789.691661559544,-1247.2496923505894
7541.679744920701,10421.143224375634,16852.634173945688,-1050.8896173107169
8041.107123030081,10406.324017801764,18041.076426634365,-476.8521162095209
8137.018458487804,10382.251189023398,18658.58807070113,-349.0448414140751
7770.159276742849,10378.026709321346,17967.427428654126,-745.0506979287503
7347.711306537546,10385.24632278041,16793.7149755615,-1270.5625618174747
7531.844977360365,10397.428023508552,16829.65658064563,-1083.0537775819037
8040.615384652065,10381.133601800631,18020.17754556865,-494.4652908403028
8146.719115581408,10361.017031790858,18661.851425391607,-350.6318152704019
7778.787050102598,10360.748810857393,17986.985205052522,-736.28881410227
7354.148608940674,10372.304662740788,16809.69647284704,-1258.4926198116088
7528.313401736427,10384.642825680115,16824.225106742993,-1083.4784607265549
8031.384114192023,10364.459200436975,18009.94044660812,-497.1027966860291
8142.829912046184,10341.973345514936,18669.227501061858,-341.26643434362825
7782.698605382277,10341.95099377048,18003.301978504896,-721.514311017312
7352.293414150884,10354.780895087826,16815.597333383244,-1251.742392986106
7516.399921941748,10365.28621498182,16803.169763466092,-1090.7651294189848
8029.260698468769,10354.2444532209,17992.66254814417,-494.7111600293112
8151.591795872664,10336.38540940111,18671.820303418677,-328.4812365151926
7792.868649109441,10337.167720457044,18025.47490900456,-707.4327120104685
7349.722963538524,10345.66138335006,16828.76251086742,-1253.3070150979777
7502.117157234808,10359.944148057002,16787.65765281411,-1104.3102865589008
8013.659180838965,10345.057886249768,17970.623728111237,-509.5974218365457
8146.205025458936,10325.56716508474,18672.848483663616,-339.12066687591874
7793.762718887654,10321.789720271794,18041.679923734657,-714.8758429140858
7354.819161274334,10331.356266898663,16846.934479109583,-1256.7044802551843
7504.262924702517,10352.456313664474,16795.57017035129,-1113.6980192301296
8016.408445406967,10342.554490870774,17973.283585701418,-519.588651608068
8151.077705750193,10320.51567083784,18690.439306549943,-341.31113783253886
7799.998855590685,10316.268839391332,18077.040383462954,-710.8748806565858
7355.824989774823,10327.020028474337,16879.59037775879,-1255.1175063988576
7491.05304372943,10344.320278682742,16796.307777918315,-1128.6289845262747
8002.036273722205,10329.255202919863,17956.27390817093,-541.8509890855538
8148.239034204368,10307.149327653568,18687.332414070657,-353.35872809394937
7807.598448705488,10304.198897385466,18095.480572638586,-707.7903399217535
7359.535379354404,10311.776138755817,16886.027680161915,-1255.9892244326145
7485.91214250471,10325.924792996026,16772.50317007341,-1140.0283741984815
8000.1810789324145,10313.541926567785,17922.411015321137,-546.6789658879002
8154.3857639295775,10289.312635578231,18667.97580337236,-346.2061698682511
7815.600373220489,10277.756783694838,18089.020918491,-697.6649996834993
7363.044603233887,10281.355414552145,16884.932444683607,-1251.6306342638295
7479.43013661267,10299.70619674995,16753.437132053034,-1149.8854935032718
7991.91093348395,10288.262103588831,17894.78425917438,-555.1726287809169
8150.809484816728,10263.205798054434,18658.498663723312,-346.273225101617
7821.009495378673,10258.467228229909,18109.00337803404,-686.3103135002034
7370.063050992853,10272.861751659126,16913.7438432865,-1235.3138608114557
7469.461258585604,10288.03858614428,16754.93469893154,-1145.6610138012188
7973.828372219607,10269.933673135482,17877.215788032507,-552.7362886352884
8144.103961480137,10246.307879246222,18657.42577998945,-329.91174816033225
7821.188309334316,10238.283602986769,18120.44747119516,-661.3657666880807
7365.078611979319,10247.2690042578,16917.67775031063,-1217.745389669584
7458.017165424486,10263.205798054434,16738.573221990257,-1150.3772318812885
7965.155895370948,10247.2690042578,17857.948584312035,-569.455393487858
8149.267214449313,10227.577117392671,18660.331506768645,-342.1381523773852
7835.068742641061,10228.381780193064,18145.839052896383,-672.2734179822705
7372.186466716107,10238.618879153595,16938.800148820897,-1241.6617562367626
7449.098819386819,10250.152379292536,16730.995980619908,-1189.42572944471
7956.483418522289,10236.227242496878,17840.29070619234,-605.0393706607068
8146.070914992204,10216.378893420566,18657.872814878563,-374.369367881938
7837.058047897583,10213.942553274936,18153.952736133662,-701.643610196544
7370.577141115325,10216.44594865393,16936.699084842097,-1272.8871432408266
7442.750923961512,10227.666524370496,16710.901762354584,-1226.1272938403242
7947.743886440264,10210.567439862183,17814.76501402438,-645.3172141691703
8136.7725892987955,10184.192381404922,18646.54048043972,-405.594754886002
7834.018210651662,10184.885285483037,18166.626175239824,-715.0993603586388
7378.266141207951,10201.135003702046,16964.5046549445,-1270.3166926284664
7451.579863021358,10227.30889645921,16723.77636716084,-1221.232261804612
7966.139372126981,10219.150509733025,17832.08761597724,-628.8886819945195
8162.812371589229,10193.311893142689,18681.72212621237,-379.2196964287396
7859.1862749083375,10188.752137273805,18209.72033854965,-686.9138106004966
7388.905571568677,10192.574285575663,16988.242207556035,-1255.2516168655893
7443.265014083983,10207.885230527549,16708.666587909054,-1233.525721255031
7948.816770174119,10192.462526853387,17798.112964405176,-646.5018566253015
8151.301223194746,10164.366384073066,18661.49379748032,-387.7357110662116
7853.844207983519,10158.845503192604,18210.05561471649,-687.8972873565301
7379.763708086456,10164.925177684448,16988.3092627894,-1259.7666692455614
7416.577031204347,10178.91736971347,16680.525741639824,-1250.0883638964135
7927.917889108407,10167.272110852256,17763.17718782153,-661.0751940101617
8150.094228994159,10143.981593129824,18646.40636997299,-390.1944029562954
7859.230978397248,10139.15361632748,18214.727129307645,-686.3326652446586
7387.430356434626,10146.395581530998,17007.062376387403,-1251.2730063525446
7422.746112674012,10166.10982014058,16688.952349299474,-1248.4343348067207
7925.5709559406,10153.659898478973,17755.42113249554,-668.2948074692258
8146.629708603587,10126.81545338815,18651.100236308605,-396.2964291925943
7868.350490135013,10125.742569654294,18244.27613547756,-682.0187785647844
7395.253466993984,10135.689095936908,17035.627905801288,-1254.0893261539134
7419.281592283439,10157.325584569644,16691.5898551452,-1271.5683903179636
7928.85666237553,10154.308099068176,17748.02270508083,-689.0148745792956
8159.5490168987535,10129.363552256054,18656.48700672233,-411.60737414447954
7884.041414742639,10129.095331322593,18266.516121210592,-695.89921187153
7407.390464233215,10139.175968071935,17053.241080432068,-1276.9328089872372
7415.548850959403,10153.861064179073,16681.509218395855,-1311.8909373153374
7915.669133146898,10145.032125119224,17716.238524465385,-733.8971774455521
8156.240958719369,10121.071055063136,18638.11387278007,-434.8308366335436
7884.667263587387,10116.779520127717,18270.13710381235,-700.6154299515999
7403.680074653635,10123.172119041934,17066.562720127433,-1268.550904816497
7401.869583352755,10140.271203550245,16680.972776528928,-1302.0785214994576
7894.680845103365,10126.279011521225,17697.753631800846,-731.6172995111108
8140.70649632293,10096.506487906754,18630.17900349844,-430.8522261204989
7877.849981528519,10091.65615935995,18279.94951962823,-686.1985547779268
7402.763653130967,10098.920476307929,17079.280862722502,-1249.5072185405754
7394.091176282308,10111.213935758346,16669.260462434348,-1290.7908905495276
7884.153173464915,10088.19163896938,17674.731335011882,-712.2606888128148
8140.192406200458,10054.552263564145,18627.11681450806,-390.1720512118401
7882.633254841955,10042.594080280553,18291.99710988964,-642.5903013456227
7401.824879863844,10041.722362246795,17083.460638935645,-1221.679296693718
7387.251542478984,10061.347193878555,16650.708514536444,-1278.8550590103937
7887.572990366578,10053.881711230482,17656.469959791895,-700.9954096073401
8153.111714495625,10024.89149867195,18622.847631317098,-382.5724580970357
7900.469946917289,10015.615524722996,18306.79396471905,-635.84007452012
7415.884127126233,10020.376446291975,17106.885267124806,-1221.4334275047097
7384.569333144347,10039.576594779086,16646.327572623202,-1308.9628587916925
7881.515667619189,10035.84385345505,17639.68379970596,-748.8728462306078
8151.234167961379,10014.564992733598,18624.88164006253,-432.6850691658341
7907.555449909622,10017.917754401891,18331.425587108803,-684.678636154966
7428.177586576651,10030.881766185972,17136.59073550591,-1268.908532727782
7383.69761511059,10047.913795460916,16654.597718071665,-1368.642016487362
7878.60994084,10047.243243127255,17636.599258971128,-806.1603672695599
8158.386726187078,10023.550394004633,18628.614381386564,-478.8190697215879
7920.161833782415,10019.08004511357,18352.30211643006,-720.3743720500913
7432.647935467713,10028.4677777848,17152.1475496468,-1301.6985418437175
7378.355548185772,10046.12565590449,16643.310087121736,-1406.6623338058394
7868.216379668282,10041.096513402046,17611.230029014354,-843.7112979544756
8152.66467960652,10014.721454944784,18621.662988860964,-497.0133897082079
7918.910136092918,10010.116995586992,18363.232119468703,-725.515273274812
7433.877281412755,10015.2131933228,17168.509026588086,-1298.390483664332
7372.789963816401,10030.434731296866,16640.67258127601,-1405.254173905155
7861.756725520698,10023.12571085998,17588.34184269212,-838.0116031183724
8155.726868596897,9998.337626259045,18609.25777068827,-477.65677900991193
7931.404761243434,9991.855620367003,18373.200997495773,-691.741787402843
7447.109514130297,9994.02373957917,17186.12220121887,-1263.231189636134
7376.701519096079,10009.35703627551,16644.092398177672,-1380.4884410486748
7859.141571419427,10007.725358930276,17571.10864771708,-822.2089197884703
8159.705479109941,9980.79150686163,18599.802982783676,-458.2554648227054
7942.155950326437,9976.768192859674,18380.4876661882,-667.0878132686393
7457.503075302015,9981.484410939744,17198.79564032503,-1239.873616680338
7371.69472833809,9999.365806503987,16629.541412537266,-1375.6604642463285
7848.9715276922625,9995.655416924408,17545.270031126744,-821.1360360546156
8158.878464565095,9972.186085246336,18594.773840281232,-450.5888164745351
7944.771104427708,9967.291053210623,18398.816096641556,-657.0071765192959
7459.313566602894,9973.527189913651,17223.606076670418,-1226.8872531518048
7368.520780625437,9993.107318056504,16638.571517297212,-1371.3689293109096
7841.528396788645,9989.799259877118,17539.011542679258,-825.3828675011239
8149.08840049367,9958.417410661868,18585.475514587823,-454.00863337619705
7942.804150915641,9950.72841056924,18402.30296877658,-646.971243258863
7463.269825371483,9955.958718771784,17241.37571351239,-1206.3459999973777
7359.535379354404,9966.017003776671,16634.5258515508,-1362.964673395714
7824.921050658352,9955.891663538416,17513.172926088922,-825.82990239023
8143.858092291128,9924.465110834257,18576.7359825058,-441.6704704368676
7939.250223547247,9912.4398723173,18414.43996601581,-627.83815000512
7455.826694467866,9916.038503174605,17253.289193307068,-1191.5714969124194
7353.366297884739,9939.150206941393,16634.123520150606,-1356.0803361034796
7822.9093936573745,9939.77605578614,17502.131164328,-818.5879371867105
8153.223473217902,9913.825680473528,18577.29477611718,-422.269156249661
7957.623357489509,9905.801404214071,18432.83545170253,-602.8712514485421
7475.116249932797,9909.489442049198,17272.243472605165,-1170.203229213146
7360.5412078548925,9929.561308570064,16629.697874748454,-1347.452562743731
7825.591602992011,9924.800387001083,17488.049565321155,-811.3236202387358
8155.860979063628,9897.553610510064,18573.383220837502,-415.16130151287337
7969.916816939929,9895.273732575624,18450.113350166484,-590.3319228091149
7486.448584371637,9902.091014634492,17299.110269440447,-1157.619197084808
7354.55094034087,9917.91604970885,16634.369389339612,-1354.6051209694292
7813.923992386341,9915.949096196782,17471.531626168686,-825.6510884345876
8159.794886087762,9894.62553198642,18570.81277022514,-412.5461474116025
7976.510581554245,9884.455488259257,18468.26296666419,-579.7818994262099
7489.130793706274,9884.52254349262,17315.94113301529,-1143.627005055786
7348.247748404473,9900.10170937797,16628.401473570048,-1348.0113563551135
7803.821003892542,9899.229991344211,17456.243032961254,-820.443131976501
8147.121446981603,9874.017223598628,18564.755447477757,-410.1545107548846
7970.833238462596,9865.076525816505,18477.94127201334,-577.7702424252323
7491.05304372943,9867.155238050847,17334.157804746366,-1141.525941076987
7344.202082658063,9882.332072536,16628.401473570048,-1356.773240181594
7796.266114266648,9879.560456223542,17436.193518184846,-837.7210304404534
8154.676336607496,9858.683926902286,18562.922604432417,-412.7026096227896
7988.5358200712,9853.43126695529,18503.019929292197,-563.1745532959168
7509.20266022714,9857.298118746055,17371.68638368683,-1123.17515887918
7346.1019809367635,9870.262130530136,16645.455854589447,-1362.808211184527
7788.755928129665,9871.357366008446,17430.06914020409,-859.536333028833
8149.848359805151,9851.821941354508,18554.25012758376,-434.204987788795
7991.10627068356,9845.116418017917,18513.927580586384,-581.7935564271876
7513.784767840478,9846.837502340974,17398.977863666758,-1140.8553887433277
7340.424637845116,9862.886054859884,16651.379066870104,-1390.613781286929
7780.128154769916,9866.529389206098,17415.428747585865,-889.7558915324082
8148.909586538028,9841.987173794172,18546.784644935688,-456.5343804996468
8000.24813416578,9836.063961513515,18527.182165048383,-591.9188966654416
7523.239555745073,9841.271917971602,17414.06529117409,-1149.7290312920848
7342.391591357183,9860.09208680297,16652.139026181583,-1403.4660343487303
7773.892018066886,9856.76167687913,17396.474468287764,-911.504138887422
8146.361487670123,9830.252507955136,18531.920734872907,-472.9852644187528
8001.343369644091,9823.345818918446,18522.421243479403,-602.0218851592405
7528.358105225338,9827.458539898222,17417.999198198224,-1147.4491533576434
7342.615108801736,9847.08337152998,16642.304258621247,-1404.963601227236
7764.280767951103,9842.814188339018,17362.25394752669,-918.567290135299
8140.259461433824,9812.482871113169,18502.259969980714,-469.6995579838226
8005.478442368322,9805.442071609745,18520.67780741189,-584.0957861060841
7531.263832004528,9804.70446404272,17428.25864890321,-1128.8077984819172
7328.332344094795,9816.014446737105,16627.306238091736,-1405.7906157720824
7754.736573068688,9818.160214204814,17338.024656537134,-923.4846739154666
8145.288603936268,9798.356568617412,18494.258045465715,-470.1018893840181
8014.083863983616,9791.315769113991,18530.06554008312,-586.5097745072574
7536.225919273605,9791.226362136167,17440.641515331452,-1138.2178828976016
7326.141873138175,9806.805528021518,16626.635685758076,-1427.5165113826408
7754.043668990573,9816.79675779304,17326.647618609382,-944.3835549811788
8147.926109781994,9796.456670338712,18489.340661685543,-483.9376192018533
8019.649448352987,9785.772536489074,18543.6777524564,-595.2269548448271
7547.379439756804,9790.04171968004,17468.31297496712,-1139.6483945427412
7332.69093426358,9810.471214112187,16640.069084175717,-1433.6185376189396
7751.67438407831,9819.098987471938,17318.66804583884,-960.0968313332596
8148.574310371198,9797.618961050388,18489.05008900763,-490.7772530051772
8022.39871292099,9783.98439693265,18560.642726497976,-595.8304519451203
7552.475637492614,9789.75114700212,17490.240036277777,-1135.8709497297943
7329.651097017658,9805.687940798753,16647.378104612602,-1438.9382527993027
7738.352744382948,9811.477042612678,17305.2346474212,-972.85967741724
8138.784246299773,9782.330367842957,18480.690536581344,-500.0308752096743
8024.96916353335,9767.555864758,18578.56882555113,-590.5777919981232
7555.224902060617,9771.020385148571,17515.69867321237,-1129.6124612823082
7323.996105670465,9787.292455112036,16646.640497045577,-1448.2365784927106
7728.897956478353,9788.141821401336,17282.815847732527,-991.1434043816812
8136.727885809885,9762.861998422384,18468.88881550894,-508.2786689136826
8030.266526969258,9753.83189366244,18584.894369231984,-595.7857484562097
7559.047050362475,9756.514102997078,17531.79192922019,-1135.9156532187048
7317.581155011792,9773.143800871829,16656.743485539377,-1463.6816339113277
7717.275049361593,9780.184600375247,17277.585539529984,-1012.6234308032311
8129.709438050919,9755.59768147441,18464.97726022926,-525.7130295888221
8035.876814827539,9742.678373179242,18600.45118337288,-600.4125595584583
7575.766155215044,9743.572442957457,17558.748133033292,-1128.1148944038027
7321.090378891276,9755.888254152327,16659.604508829656,-1467.7272996577385
7712.424720814792,9761.207969332692,17259.145350354356,-1026.5262158544322
8131.743446796352,9740.30908826698,18450.51568156668,-536.7324396052885
8036.100332272093,9724.148777025794,18599.087726961105,-608.3027253511817
7578.493068038591,9729.803768372984,17571.130999461533,-1133.233443884068
7321.738579480479,9747.26048079258,16659.53745359629,-1476.3550730174868
7702.657008487822,9751.68612619473,17234.513727964608,-1045.4581434080771
8127.4966153498435,9730.384913728823,18431.0026086572,-548.0424222996738
8044.370477720557,9719.141986267805,18607.64844508749,-604.7487979827879
7584.371576830337,9723.008838058571,17591.895770060513,-1124.2256908685792
7314.630724743692,9740.01851558906,16661.079723963707,-1481.9430091313136
7689.178906581272,9748.668640693264,17216.386463211355,-1056.5669604023649
8119.517042579298,9730.74254164011,18418.418576528857,-549.0706025446179
8039.16252126247,9716.571535655445,18609.70480557737,-604.9276119384303
7582.672844251734,9718.963172312162,17607.162011523487,-1123.3539728348223
7312.797881698357,9736.822216131952,16665.281851921303,-1489.4308435238415
7681.981644866663,9741.806655145483,17192.02306175507,-1083.210239793091
8115.22550764388,9719.901945579284,18395.97742509573,-573.9704458678301
8048.997288822805,9708.659018118266,18615.851535302583,-612.8624812200643
7595.636856035812,9709.329570451924,17623.769357653782,-1125.1197606467915
7315.703608477546,9728.172091027747,16671.40622990206,-1497.611581994484
7680.439374499247,9734.899966108796,17189.765535565082,-1091.301571285912
8119.427635601478,9709.106053007372,18398.63728268591,-577.6584837029558
8061.69307967342,9696.834945301409,18635.811643101173,-606.4475305613912
7612.735940544122,9701.193535470193,17660.359163327117,-1108.4006557942218
7316.865899189223,9716.236259488614,16689.86877082214,-1490.77194819116
7667.363603992892,9717.73382636712,17177.047392970013,-1093.8943736427275
8109.03407442976,9691.761099310052,18384.6897941458,-571.1764778109167
8059.055573827693,9677.612445069844,18642.40540771549,-592.455338532369
7616.312219656971,9684.787355039996,17674.999555945345,-1093.9390771316382
7319.034018401387,9703.965151782651,16692.908608068064,-1487.508593500685
7668.749412149122,9709.73190185212,17167.54790157651,-1092.6650276976857
8112.029208186771,9682.82040152793,18379.414782454347,-567.6001986980675
8065.895207631017,9662.569721051424,18653.782445643243,-587.873230919031
7624.582365105434,9667.218883898126,17696.971320744913,-1089.8263561518618
7314.720131721513,9683.200381183671,16696.708404625464,-1495.801090693604
7657.37237422137,9696.20909645666,17149.890023456817,-1114.6144407527972
8113.5267750652765,9680.004081726562,18373.178645751315,-580.1171755930395
8075.484106002344,9666.19070365318,18664.958317870896,-595.7633967117545
7637.613432122878,9672.67270954522,17716.55144888776,-1092.4862137420432
7316.977657911499,9682.596884083378,16697.624826148134,-1510.8214629675704
7643.804865336999,9679.981729982106,17125.414863278256,-1144.8787027452831
8097.120594635081,9652.064401157428,18349.41874139533,-610.001457929785
8059.16733254997,9631.411389280724,18662.32081202517,-614.7847312432208
7619.016780736063,9630.226746824592,17729.828385094213,-1103.9973621365264
7298.11278559122,9648.778694722498,16711.192335032505,-1520.902099716914
7630.080894241441,9667.10712517585,17132.142738359304,-1151.3607086373222
8098.349940580123,9653.4278575692,18364.372058435925,-604.7040944938773
8080.960283393894,9641.201453352149,18703.537428800755,-590.0189983867406
7641.077952513451,9638.608650995331,17778.979871151434,-1076.1470885452138
7308.483995018482,9653.24904361356,16739.17671909055,-1508.6533437554056
7628.896251785309,9667.040069942484,17124.25257256658,-1154.9816912390818
8094.103109133614,9645.895319687765,18346.82593903851,-611.5660800416565
8076.244065313825,9630.09263635786,18694.95435892992,-597.9538676683745
7650.6892026292335,9640.039162640473,17791.675662002046,-1073.464879210577
7311.769701453412,9656.221825626117,16744.474082526456,-1514.5318525471512
7617.407455135281,9662.457962329145,17107.287598525,-1181.937895052182
8085.810611940696,9641.402619052244,18323.647180038355,-642.5455978567121
8083.195457839425,9629.109159601829,18695.088469396647,-621.713772024366
7661.909778345797,9634.80885443793,17810.406423855595,-1088.5523067179092
7316.441216044572,9648.443418555667,16752.587765763732,-1527.8758439869696
7618.145062702306,9659.731049505595,17095.530580941508,-1195.259534747545
8092.449080043922,9640.888528929774,18318.64038928037,-644.6466618355109
8093.812536455695,9626.225784567092,18711.494649826844,-610.2249753743381
7674.002072096118,9627.14220608976,17839.977781769965,-1071.8108501208842
7324.510195792937,9642.453151041644,16774.80539975231,-1519.4492363273189
7619.799091791999,9653.450209313656,17097.162258286746,-1199.3722557273218
8096.785318468252,9633.601860237344,18318.43922358027,-650.5698741161674
8098.394644069033,9614.401711750235,18724.726882544383,-615.4329318324246
7681.579313466467,9619.564964719411,17867.29161349435,-1070.6709111536636
7325.247803359963,9633.825377681896,16793.13383020566,-1527.3617538644976
7606.745673030099,9640.48619752958,17088.66859539373,-1221.5004827380756
8085.989425896339,9620.347275775346,18309.118546142407,-660.5611038876896
8105.435443572455,9608.23263028057,18741.870670541604,-604.7487979827879
7689.625941470378,9608.85847912532,17894.940721385567,-1053.951806301094
7321.135082380186,9618.134453074272,16802.5662663658,-1517.7281520042602
7595.972132202642,9627.991572379062,17079.839656333883,-1215.5325669685087
8073.695966445919,9606.355083746324,18302.18950536126,-654.4814293958461
8095.757138223307,9590.261827738505,18747.14568223306,-593.3047048216707
7690.408252526314,9593.860458595807,17912.68800648308,-1034.2599194359684
7321.380951569195,9606.489194213056,16811.238743214457,-1498.572707006062
7584.729204741622,9611.451281482136,17058.337278167877,-1208.3800087428103
8067.370422765068,9585.4114991917,18281.89412139584,-640.5339408557345
8106.150699395025,9571.978100774062,18760.780246350794,-568.3154545206373
7703.99811315514,9576.649615365222,17940.40416960766,-1009.8965179796836
7329.44993131756,9590.887676583252,16829.164842267615,-1489.4978987572074
7594.496917068591,9604.723406401088,17059.298403179455,-1210.9951628440813
8089.968036409383,9590.507696927512,18290.991281389157,-639.3045949106926
8124.345019381645,9569.18413271715,18777.74522039237,-572.1599545669502
7714.346970837948,9568.200655961116,17966.958042020564,-1022.0335152189156
7333.562652297337,9584.137449757747,16851.516586722923,-1510.6873525008384
7579.320082583437,9596.967351075096,17058.85136829035,-1247.2720440950447
8068.666823943476,9583.735118357554,18282.51997024059,-678.6660168964884
8115.091397177148,9568.51358038349,18786.44004898549,-602.2901060927041
7716.38097958338,9570.547589128922,17990.94146382111,-1042.6418236067086
7328.511158050437,9584.584484646855,16861.86544440573,-1537.2859284026538
7572.279283080016,9600.834202865864,17046.75907454003,-1285.8511550249048
8068.420954754467,9583.221028235082,18268.68424042276,-711.9254126459853
8125.641420560053,9568.535932127945,18800.3875375256,-615.7011527658883
7727.981534955685,9568.781801316953,18025.69842644911,-1041.5018846394878
7330.723980751512,9578.41540317719,16892.509686053956,-1534.5590155791065
7560.678727707712,9588.361929459805,17053.46459787662,-1285.0464922245137
8051.813608624174,9565.719612326577,18263.74450489813,-706.5162904878009
8113.79499599874,9546.4524086061,18804.94729339448,-600.3008008361818
7726.461616332725,9549.000507474007,18047.781949970955,-1013.4504453480776
7330.053428417854,9563.886769281242,16907.239485650003,-1506.44052105433
7551.894492136776,9576.247283965024,17042.445187860154,-1265.0863844259245
8047.20914926638,9556.264824421982,18250.31110648049,-680.7223773863766
8116.901888478028,9538.070504435362,18817.17369761153,-571.5564574666569
7732.317773380015,9541.065638192373,18077.39801137424,-981.9344856660946
7335.127274409208,9560.243434935026,16936.36380867527,-1483.4629277542745
7553.414410759737,9572.514542640987,17056.482083378087,-1257.8667709668605
8049.578434178643,9553.51555985398,18260.257632763103,-677.8613540960973
8131.98931598536,9540.529196325446,18842.34176186821,-559.3300532496039
7755.697698080266,9547.5029405955,18123.04027355197,-963.0025581124496
7344.224434402518,9563.84206579233,16972.97596609306,-1478.1655643183667
7547.357088012349,9579.108307255305,17065.400429415757,-1271.6577972957848
8043.252890497791,9562.500961125012,18263.99037408714,-697.0615025832061
8125.484958348866,9541.736190526031,18866.124017968657,-573.6575214454558
7750.266224177626,9544.664269049676,18159.026582125018,-974.5584099958432
7333.249727874962,9557.717687811575,16999.50748676151,-1495.5328697601403
7532.694343649668,9578.393051432737,17077.537426654988,-1291.617905094374
8039.050762540193,9565.69726058212,18276.28383353756,-702.7164939303988
8131.408170629522,9545.200710916604,18890.88975082514,-564.068623074129
7762.112648738939,9547.681754551144,18196.152829665283,-954.3971364971562
7341.318707623328,9557.538873855934,17028.60945804232,-1473.5834567050288
7529.878023848299,9571.486362396046,17078.923234811216,-1278.3856723768322
8035.273317727247,9553.672022065166,18274.89802538133,-686.355016989114
8133.75510379733,9528.97334444205,18905.284274254354,-539.7722768512102
7765.554817385057,9529.30862060888,18220.96326601068,-924.602261138232
7343.553882068859,9541.758542270489,17047.250812918046,-1446.2025697472775
7524.245384245562,9552.040344719928,17071.278938207503,-1266.5392478155195
8034.021620037749,9534.404818344692,18267.94663285573,-676.8331738511532
8139.007763744326,9510.6449139887,18922.04808259584,-531.5468348916572
7778.027090791117,9514.26589659046,18253.574461170967,-917.0026680234276
7349.007707715954,9529.152158397694,17072.843560319372,-1444.9508720577803
7518.009247542531,9546.787684772931,17073.983499286594,-1272.7083292851842
8023.359837932568,9528.392199086216,18263.409228731303,-684.5445256882341
8139.387743400067,9507.6944837206,18936.599068236243,-527.3894104229702
7785.671387394833,9511.02489364444,18287.77263018759,-904.8656707841958
7352.159303684152,9522.580745527834,17102.370214744835,-1442.1122005119564
7508.889735804765,9537.84698699081,17077.80564758845,-1286.812280036483
8018.01777100775,9524.704161251087,18255.51906293858,-693.4405199814463
8147.501426637344,9507.247448831493,18944.13160611768,-520.6168318530121
7792.846297364986,9505.92869590863,18310.571409532,-889.2641531543915
7355.512065352448,9519.74207398201,17121.838584165405,-1424.7895985590933
7503.033578757475,9530.31444910937,17076.24102547658,-1282.4760416121533
8014.575602361632,9516.322257080348,18251.56280416999,-689.2383920238486
8150.630670861086,9497.50208824898,18966.08101917279,-503.18247117787257
7802.8375271365085,9496.898591148683,18361.5333868901,-862.3079493412912
7359.736545054501,9507.269800575948,17174.92397724676,-1408.5175285956298
7494.025825741986,9520.5467367824,17103.957188601158,-1278.4080241212876
8000.896334754984,9504.989922641507,18266.42671423277,-683.0916622986391
8146.294432436756,9486.616788699244,19002.112031234745,-484.8540407245208
7811.800576663087,9494.372844025236,18421.816041686063,-837.5198647403556
7366.665585835646,9503.648817974188,17233.396140741843,-1393.5642115550295
7496.663331587712,9519.339742581817,17150.53822404602,-1276.1281461868462
8004.025578978727,9503.872335418742,18311.6219415214,-688.1431565455385
8160.3760314436,9484.627483442722,19058.05844760638,-493.0794826840738
7831.827739695042,9490.483640490012,18486.770211073188,-840.1126670971713
7381.753013342979,9500.363111539258,17291.5330280701,-1399.733293024694
7498.317360677405,9513.081254134328,17181.271872672067,-1298.323428430966
8002.907991755962,9497.703253949076,18325.01063645013,-712.8418341686529
8160.599548888154,9480.760631651954,19085.238168864034,-509.30684915862673
7830.151358860894,9482.124088063729,18529.171470304904,-853.3896033036236
7377.953216785577,9493.12114633574,17333.91193555736,-1410.931516996803
7481.084165702363,9507.158041853672,17194.92878853426,-1321.2786699865665
7991.709767783853,9498.239695816004,18343.71904655922,-724.3976860520465
8160.353679699145,9481.900570619177,19125.471308883585,-507.74222704675526
7835.761646719176,9480.40300374067,18582.81565699764,-846.505266011389
7383.630559877224,9488.851963144776,17384.24806407071,-1402.8848889928925
7483.006415725519,9502.017140628952,17223.427262714777,-1318.4623501851977
7991.709767783853,9486.415622999148,18352.6820960858,-721.7378284618651
8168.020328047315,9468.06484080134,19143.866794570306,-496.7004652858336
7846.334021846536,9466.92490183412,18608.63192184352,-829.0709053362496
7391.453670436582,9478.97249209553,17404.96813118078,-1385.8528597179486
7477.57494182288,9492.472945746536,17220.722701635685,-1316.6742106287732
7983.797250246675,9480.91709386314,18344.05432272605,-726.4763982863901
8165.785153601784,9461.560483164843,19147.130149260774,-494.9570292183196
7852.547806805112,9462.745125620975,18630.4472244319,-823.9747076004396
7392.235981492518,9475.865599616242,17418.625047042973,-1391.1949266427669
7468.053098684919,9493.679939947122,17207.46811717369,-1339.2494725286333
7981.159744400948,9485.54390496539,18326.597610306457,-745.0283461842951
8169.719060625918,9463.125105276717,19147.24190798305,-508.5468898471463
7856.280548129148,9463.21451225454,18644.28295424973,-833.9435856275065
7393.711196626568,9478.100774061772,17428.526869836674,-1400.4261971028086
7464.610930038802,9498.440861516105,17193.654739100308,-1355.454487258731
7977.829334477107,9490.30482653437,18307.06218565252,-761.2110091699374
8174.614092661631,9469.003614068462,19147.84540508335,-517.0629044846182
7869.959815735796,9466.25434950046,18669.33925978413,-836.670498451054
7405.870545610255,9478.100774061772,17459.573442885096,-1407.578755328507
7465.683813772656,9496.943294637596,17200.427317670266,-1376.353368324443
7968.19573261687,9477.83255312831,18285.9174353978,-794.1798322415152
8167.640348391575,9450.697535359566,19136.915402044702,-541.1580850074392
7871.479734358756,9448.931747547596,18684.963129158397,-842.2137310759701
7407.7480921445,9465.561445422343,17483.06512630762,-1409.3445431404762
7452.563339777392,9484.582779953813,17201.991939782136,-1392.223106887711
7958.517427267722,9472.669300159134,18286.7668016871,-802.1147015231493
8171.104868782148,9448.685878358589,19158.954222077635,-530.8315790690874
7880.129859462961,9448.752933591955,18721.95526623193,-825.1817018010262
7405.647028165702,9459.906454075151,17503.449917250862,-1402.549612826063
7442.326240816861,9477.229056028016,17197.2086664687,-1400.0015139581578
7944.234662560781,9466.500218689467,18265.35383049892,-813.6929051509983
8159.012575031827,9439.34284917627,19141.564564891407,-542.2086169968387
7873.8043157821085,9435.833625296787,18716.479088840377,-834.2788617943361
7404.909420598677,9449.803465581354,17509.507239998253,-1406.1482436833674
7432.8043976789,9466.768439622932,17185.183427951746,-1413.479615864708
7934.71281942282,9455.994898795474,18243.4044174438,-830.3226030257467
8165.539284412776,9436.280660185894,19142.972724792093,-548.8247333556096
7885.650740343421,9433.844320040263,18740.84249029666,-834.0106408608724
7410.005618334487,9438.87346254271,17531.61311526455,-1414.5524995985627
7430.792740677923,9457.11248601824,17182.21064593919,-1433.8867585524033
7931.717685665809,9450.652831870657,18224.628952101342,-858.2399318504253
8168.310900725234,9428.77047404891,19133.45088165413,-567.9354748648972
7895.284342203658,9424.747160046954,18740.909545530027,-843.2419113209143
7411.592592190814,9425.797692036354,17525.868716939534,-1423.9178805253364
7419.929792872643,9441.86859629972,17158.942479961217,-1451.544636672096
7922.106435550027,9432.994953750964,18193.738841264112,-871.181591890048
8166.52276116881,9410.822023251298,19121.93973325965,-569.9024283769642
7900.358188195013,9413.347770374749,18752.599507880157,-836.312870539769
7423.036685351931,9423.696628057556,17544.867699726547,-1408.741046040183
7426.61296446478,9442.293279444371,17158.29427937201,-1441.955738300769
7926.353266996535,9430.648020583156,18188.12855340583,-862.0173766633721
8173.608264161142,9406.172860404597,19125.471308883585,-558.4806869603023
7916.026761058183,9408.832717994776,18775.063011057737,-816.866852863652
7435.196034335618,9413.347770374749,17568.67230757145,-1389.9208772088143
7422.433188251637,9429.284564171385,17151.96873569116,-1443.6544708793726
7925.079217562583,9423.137834446172,18173.532864276516,-865.8842284541403
8185.499392211365,9400.316703357305,19133.942620032147,-550.8363903565872
7925.28038326268,9391.823040464287,18795.78307816781,-810.1166260381492
7442.102723372308,9401.210773135515,17588.00656652529,-1389.026807430602
7422.723760929556,9426.33413390328,17157.221395638157,-1447.8118953480596
7924.296906506647,9421.48380535648,18167.676707229224,-867.0688709102716
8187.421642234522,9398.66267426761,19137.98828577856,-541.4039541964477
7933.95286011134,9399.444985323547,18826.96376168296,-789.5530211392667
7451.110476387797,9408.676255783588,17625.021055343277,-1367.3456153089542
7415.481795726037,9421.416750123111,17164.284546886032,-1448.482447681719
7909.4329964438675,9414.644171553156,18155.673820456723,-875.5848855477435
8177.072784551715,9387.084470639762,19133.40617816522,-548.3329949775929
7928.90136586444,9382.770583959888,18835.837404231715,-793.1740037410265
7445.924871674165,9395.533430043868,17636.375741526575,-1370.452507788242
7406.027007821443,9417.795767521357,17154.472131070153,-1458.7418983867049
7898.435938171857,9413.236011652472,18133.657352168244,-891.3652171331903
8177.788040374285,9393.745290487444,19125.40425365022,-557.3630997375369
7939.071409591605,9390.414880563603,18850.2989828943,-792.7940240852862
7455.223197367572,9400.830793479776,17658.43691330396,-1367.6585397313286
7401.668417652657,9419.896831500151,17159.903604972795,-1468.017872335657
7891.015159012695,9416.700532043043,18121.699168884657,-905.0668364842936
8177.944502585471,9393.38766257616,19129.807547307915,-558.8830183604978
7944.771104427708,9386.637435750656,18875.31058493979,-789.5306693948114
7464.655633527713,9399.333226601271,17692.0762887092,-1365.713937963717
7402.271914752951,9420.120348944709,17172.39823012331,-1481.9430091313136
7887.79650781113,9414.890040742164,18118.39111070527,-925.2728134718913
8186.438165478488,9396.762775988913,19142.01159978051,-567.1531638089614
7965.804095960152,9395.980464932974,18908.637035922653,-784.188602469993
7478.67017730119,9399.087357412262,17723.99457979138,-1364.1046123629346
7406.94342934411,9419.650962311143,17185.675166329762,-1489.3861400349308
7888.779984567164,9418.10869194373,18113.764299603023,-938.0356595558716
8192.495488225877,9400.942552202052,19143.55387014793,-574.9986261127742
7973.493096052778,9398.86383996771,18925.669065197595,-788.8154135722416
7490.538953606958,9408.072758683296,17750.839024882203,-1361.9811966396803
7410.318542756861,9429.329267660292,17188.178561708755,-1498.2374308392325
7888.623522355977,9425.842395525266,18098.83333430688,-952.2066655405362
8197.994017361882,9408.63155229468,19140.044646268445,-584.3416552950926
7986.188886903392,9408.072758683296,18938.476614770487,-787.831936816208
7495.478689131581,9406.776357504888,17763.84774015519,-1363.1211356069011
7395.588743160813,9420.410921622626,17174.63340456884,-1516.767026992682
7864.79656276662,9411.470223840504,18069.28432813696,-975.7877559408852
8172.937711827482,9377.85320017972,19116.575314590373,-605.9557921833745
7959.85853193504,9363.61513896169,18931.10053910024,-808.3955417150905
7476.412651111204,9376.020357134385,17765.90410064508,-1379.9743509262028
7382.22239997654,9403.6694650256,17165.715058531172,-1535.8777685019695
7863.723679032765,9412.096072685252,18059.226043132072,-983.4767560335108
8193.881296382106,9394.840525965754,19130.656913597217,-591.293047820693
7994.213163162847,9390.392528819148,18968.98674595198,-778.6900733339875
7513.985933540575,9402.48482256947,17809.28883663283,-1346.4914377321527
7400.617885663258,9419.740369288966,17182.72473606166,-1522.667887528883
7859.946234219818,9408.117462172206,18045.18914761414,-989.891706692184
8188.583932946198,9385.832772950263,19119.03400648046,-597.4397775459025
8000.225782421325,9386.615084006202,18982.75542053645,-779.2712186898254
7517.20458474214,9399.400281834636,17824.420967629074,-1349.397164511343
7395.029949549431,9419.24863091095,17173.337003390432,-1537.35298363602
7858.582777808044,9415.582944820278,18025.13963283773,-1003.213346387547
8199.938619129494,9398.819136478798,19120.039834980947,-592.3659315545477
8008.697093569886,9391.845392208745,18997.596978854774,-769.2576371738479
7520.244421988061,9397.34392134475,17841.452996904016,-1344.5021324756303
7392.101871025786,9418.756892532932,17174.566349335473,-1539.275233659176
7852.368992849469,9419.919183244609,18012.466193731572,-1011.5505470693764
8199.804508662763,9405.792880748855,19108.796907519925,-601.5748502701343
8018.755378574775,9401.344883602247,19001.575589367814,-770.2411139298814
7534.929518095198,9410.307933128826,17854.081732521267,-1334.801475382027
7393.308865226372,9433.084360728784,17168.129046932347,-1544.1479139504331
7847.205739880293,9435.923032274608,17985.59939689629,-1028.5155211109543
8199.089252840193,9415.918220987109,19094.02240443497,-619.7021150233883
8024.857404811073,9409.05623543933,19014.00315928497,-784.2333059589037
7538.259928019039,9411.917258729609,17874.712392653513,-1352.1240773348902
7389.374958202238,9434.91720377412,17170.07364869996,-1571.3499869525417
7835.046390896606,9434.984259007486,17969.439085655104,-1055.538780157421
8189.768575402329,9411.358465118226,19082.600663018307,-631.0120977177737
8023.985686777317,9403.20007839204,19017.98176979801,-781.5063931353561
7541.478579220603,9409.14564241715,17886.82703814829,-1339.3165277619992
7385.105775011275,9434.760741562932,17161.088247428925,-1564.3985944269414
7832.632402495433,9434.000782251453,17938.861899240244,-1055.337614457323
8194.037758593293,9407.111633671717,19060.53949124092,-626.0053069597849
8036.301497972191,9399.176764390084,19021.692159377595,-760.9651399809289
7557.817704417433,9402.551877802834,17905.49074476847,-1307.398236679821
7392.638312892714,9420.500328600448,17169.58191032194,-1537.6212045694836
7823.758759946676,9412.38664536317,17930.636457280692,-1034.5728438583426
8187.9580841014495,9384.938703172053,19055.845624905305,-596.7245217233326
8037.240271239313,9376.869723423688,19031.68338914912,-723.8388924406639
7564.724393454122,9382.412956048604,17926.724902001013,-1270.3837478618325
7389.017330290953,9401.233124879973,17172.755858034594,-1519.9409747053355
7820.45070176729,9402.66363652511,17919.84056470878,-1022.4581983635662
8193.546020215275,9380.71422347,19055.890328394216,-579.7818994262099
8046.762114377274,9376.154467601118,19050.034171346924,-710.7184184453987
7571.787544702,9387.24093285095,17950.820082523835,-1264.035852436525
7382.8929523102,9410.263229639915,17177.62853832585,-1530.021611454679
7816.852070909986,9415.650000053643,17912.106861127242,-1044.854646307784
8197.368168517134,9394.57230503229,19057.38789527272,-602.2901060927041
8053.288823758224,9392.225371864482,19063.60168023129,-734.1653983790158
7578.627178505323,9403.892982470154,17965.482826886517,-1292.646085339318
7378.802583074878,9424.277773413394,17170.00659346659,-1580.1342225234775
7802.122271313939,9429.329267660292,17886.60352070374,-1106.0537226264146
8185.789964889284,9409.525622072892,19043.21688928805,-656.4260311634578
8053.937024347428,9405.658770282123,19078.219721105062,-772.2304191864038
7581.018815162041,9418.71218904402,17990.22620799854,-1320.1163792748905
7370.331271926317,9442.226224211005,17173.58287257944,-1609.0350281041897
7783.793840860587,9441.48861664398,17861.144883769142,-1136.1838741521683
8174.100002539159,9420.05329371134,19025.0896245348,-673.32394997167
8050.383096979034,9419.159223933128,19084.09822989681,-773.7503378093646
7582.762251229555,9432.90554677314,18003.749013394,-1311.846233826427
7369.951292270576,9455.078477272806,17176.06391621398,-1601.658952433938
7785.581980417011,9462.901587832164,17852.07007552029,-1124.113932146303
8179.777345630807,9438.6275933537,19021.468641933043,-651.12866772755
8059.681422672442,9430.446854883055,19097.665738781183,-744.4472008284571
7589.959512944164,9440.549843376855,18024.84906015981,-1279.8832392553377
7362.083478222308,9457.44776218507,17172.040602212026,-1582.8164318581144
7769.466372664735,9459.951157564064,17831.461767132496,-1114.3238680748782
8172.71419438293,9436.839453797276,19007.3870429262,-634.4989698528016
8061.201341295403,9430.938593261077,19101.84551499433,-718.2286045823819
7597.939085714708,9441.756837577444,18040.56233651189,-1244.0310411490252
7370.308920181861,9465.695555889077,17178.0532214705,-1553.9156262774022
7775.456640178757,9470.21060826905,17813.356854123696,-1095.9283823881606
8183.577142188209,9445.601337623755,18992.590188096787,-609.777940485232
8076.869914158573,9433.464340384524,19103.007805706,-690.0207030797843
7607.773853275044,9437.19708170856,18051.134711639254,-1218.5724042144304
7362.5975683447805,9454.854959828252,17174.096962701915,-1538.5152743476958
7761.44209640528,9463.080401787807,17796.973025437954,-1078.9634083465826
8174.2788164948015,9440.929823032597,18983.85065601476,-584.1851930839053
8068.935044876939,9424.925974002595,19112.842573266335,-659.2423509648265
7603.303504383983,9427.921107759608,18072.25711014952,-1187.816403843928
7355.869693263733,9450.049334770363,17176.466247614175,-1518.3316491045534
7748.969822999218,9458.006555796452,17773.50369375988,-1069.463916953077
8167.059203035737,9434.805445051845,18959.621365025207,-575.4680127463356
8079.17214383747,9424.121311202209,19111.367358132287,-635.0577634641843
7622.637763337822,9428.010514737429,18088.23860743506,-1153.4170691272104
7365.212722446052,9444.573157378813,17177.24855867011,-1499.891459928925
7745.907634008841,9450.339907448282,17750.70491441547,-1070.290931497923
8168.869694336617,9430.513910116424,18945.919745674106,-575.3786057685144
8087.285827074746,9427.228203681494,19120.039834980947,-635.2142256753714
7637.300507700505,9440.281622443394,18112.222029235607,-1151.7630400375176
7367.98433875851,9457.805390096351,17186.166904707778,-1510.4861868007406
7744.320660152514,9468.06484080134,17743.55235618977,-1083.7466816600183
8173.116525783125,9448.618823125224,18941.807024694328,-577.0326348582071
8100.451004558922,9443.76849457842,19134.613172365807,-623.9489464698967
7650.599795651412,9456.754858106957,18133.366779490327,-1138.106124175325
7376.656815607169,9475.530323449411,17193.990015267136,-1507.6475152549167
7749.148636954861,9483.085213075306,17737.27151599783,-1090.7427776745294
8181.230209020402,9460.64406164218,18940.39886479364,-583.0452541166848
